timestamps,TP9,AF7,AF8,TP10,Right AUX
1746583603.364,223.145,-46.387,-41.016,187.988,0.000
1746583603.367,-1000.000,-269.531,-114.746,-1000.000,0.000
1746583603.371,-266.602,-76.172,-59.570,-262.695,0.000
1746583603.375,-808.105,195.312,46.387,-808.105,0.000
1746583603.379,314.453,51.758,1.953,286.133,0.000
1746583603.383,-1000.000,-203.613,-111.328,-1000.000,0.000
1746583603.387,-632.812,-104.492,-89.844,-564.941,0.000
1746583603.391,994.629,176.270,12.695,-960.938,0.000
1746583603.395,739.258,137.695,-8.789,689.941,0.000
1746583603.399,-803.223,-148.438,-124.023,-865.234,0.000
1746583603.403,-1000.000,-187.012,-135.254,-1000.000,0.000
1746583603.406,173.828,95.215,-33.203,303.711,0.000
1746583603.410,-805.664,234.863,-5.371,-817.871,0.000
1746583603.414,-71.289,-41.016,-116.211,-134.277,0.000
1746583603.418,-1000.000,-226.074,-159.668,-1000.000,0.000
1746583603.422,-232.910,-3.418,-66.895,-190.430,0.000
1746583603.426,-817.871,223.633,9.277,-808.105,0.000
1746583603.430,237.793,32.227,-51.758,230.469,0.000
1746583603.434,-1000.000,-217.773,-150.879,-1000.000,0.000
1746583603.438,-338.379,-47.363,-101.074,-289.062,0.000
1746583603.442,-835.938,231.934,6.836,-816.406,0.000
1746583603.446,449.219,111.328,-32.227,395.508,0.000
1746583603.449,-1000.000,-185.547,-141.113,-1000.000,0.000
1746583603.453,-774.902,-148.926,-126.465,-693.848,0.000
1746583603.457,819.336,149.414,-3.418,912.598,0.000
1746583603.461,936.035,170.410,12.207,860.840,0.000
1746583603.465,-570.312,-152.344,-122.070,-667.969,0.000
1746583603.469,-1000.000,-210.938,-150.391,-1000.000,0.000
1746583603.473,90.820,80.566,-28.320,172.852,0.000
1746583603.477,-786.621,195.312,32.715,-789.551,0.000
1746583603.481,67.383,-72.266,-47.852,17.090,0.000
1746583603.485,-1000.000,-235.352,-111.328,-1000.000,0.000
1746583603.489,-247.070,-12.207,-47.363,-238.281,0.000
1746583603.492,-813.965,206.543,28.809,-812.012,0.000
1746583603.496,240.723,14.648,-40.527,238.770,0.000
1746583603.500,-1000.000,-230.469,-138.184,-1000.000,0.000
1746583603.504,-459.961,-110.840,-92.773,-392.090,0.000
1746583603.508,-891.113,175.293,20.508,-860.352,0.000
1746583603.512,549.805,105.957,2.930,503.906,0.000
1746583603.516,-1000.000,-203.613,-117.188,-1000.000,0.000
1746583603.520,-911.133,-191.895,-99.121,-810.547,0.000
1746583603.524,608.887,107.422,37.598,763.184,0.000
1746583603.528,-907.227,170.410,34.668,-972.168,0.000
1746583603.532,-316.406,-122.070,-92.285,-415.039,0.000
1746583603.535,-1000.000,-241.211,-127.930,-1000.000,0.000
1746583603.539,-90.820,21.973,-35.645,-12.207,0.000
1746583603.543,-796.875,192.871,32.227,-790.039,0.000
1746583603.547,188.965,-47.852,-43.457,138.184,0.000
1746583603.551,-1000.000,-268.066,-112.305,-1000.000,0.000
1746583603.555,-259.766,-94.727,-50.293,-253.906,0.000
1746583603.559,-810.059,176.270,50.293,-810.059,0.000
1746583603.563,254.395,45.410,6.836,240.723,0.000
1746583603.567,-1000.000,-232.910,-107.422,-1000.000,0.000
1746583603.571,-562.988,-111.328,-68.848,-498.047,0.000
1746583603.574,-961.426,202.148,17.090,-919.922,0.000
1746583603.578,684.082,124.512,-25.879,625.977,0.000
1746583603.582,-872.070,-209.961,-111.328,-943.359,0.000
1746583603.586,-1000.000,-228.027,-101.562,-1000.000,0.000
1746583603.590,287.109,81.055,8.789,428.711,0.000
1746583603.594,-817.871,181.152,44.922,-841.797,0.000
1746583603.598,-140.137,-93.750,-60.059,-199.707,0.000
1746583603.602,-1000.000,-218.750,-110.840,-1000.000,0.000
1746583603.606,-186.523,18.555,-23.438,-107.910,0.000
1746583603.610,-807.617,204.102,46.387,-791.016,0.000
1746583603.614,228.027,-15.137,-38.574,218.750,0.000
1746583603.617,-1000.000,-233.398,-125.977,-1000.000,0.000
1746583603.621,-270.020,-81.055,-53.223,-266.602,0.000
1746583603.625,-809.570,154.785,50.293,-807.129,0.000
1746583603.629,349.121,31.250,13.184,310.059,0.000
1746583603.633,-1000.000,-260.742,-105.957,-1000.000,0.000
1746583603.637,-750.977,-206.055,-96.680,-650.391,0.000
1746583603.641,848.633,121.582,14.160,953.613,0.000
1746583603.645,870.117,132.812,21.973,802.246,0.000
1746583603.649,-668.457,-183.594,-81.055,-746.582,0.000
1746583603.653,-1000.000,-232.422,-104.004,-1000.000,0.000
1746583603.657,129.395,68.359,-13.184,225.586,0.000
1746583603.660,-791.504,204.102,25.391,-799.316,0.000
1746583603.664,16.602,-62.988,-62.988,-46.875,0.000
1746583603.668,-1000.000,-243.652,-114.746,-1000.000,0.000
1746583603.672,-241.699,-21.973,-32.715,-215.820,0.000
1746583603.676,-815.918,194.336,47.363,-810.059,0.000
1746583603.680,240.234,-22.461,-21.973,234.863,0.000
1746583603.684,-1000.000,-273.438,-104.492,-1000.000,0.000
1746583603.688,-424.805,-107.910,-50.293,-342.773,0.000
1746583603.692,-871.094,182.617,24.902,-836.914,0.000
1746583603.696,497.559,74.219,-13.672,449.707,0.000
1746583603.699,-1000.000,-215.820,-105.469,-1000.000,0.000
1746583603.703,-892.090,-189.453,-89.844,-799.316,0.000
1746583603.707,648.926,104.004,8.301,774.414,0.000
1746583603.711,-968.262,163.574,19.043,968.750,0.000
1746583603.715,-442.383,-129.883,-66.406,-523.926,0.000
1746583603.719,-1000.000,-248.535,-87.402,-1000.000,0.000
1746583603.723,3.906,11.719,-10.742,73.730,0.000
1746583603.727,-789.062,185.059,23.926,-788.574,0.000
1746583603.731,125.000,-64.453,-64.453,62.500,0.000
1746583603.735,-1000.000,-246.582,-123.047,-1000.000,0.000
1746583603.739,-252.930,-44.434,-41.992,-246.094,0.000
1746583603.742,-812.500,185.059,53.223,-812.500,0.000
1746583603.746,241.211,12.695,-6.836,240.234,0.000
1746583603.750,-1000.000,-241.211,-102.051,-1000.000,0.000
1746583603.754,-512.695,-127.930,-58.105,-437.012,0.000
1746583603.758,-929.199,159.180,31.250,-883.789,0.000
1746583603.762,644.043,118.652,12.695,582.520,0.000
1746583603.766,-920.410,-189.453,-94.238,-988.770,0.000
1746583603.770,-1000.000,-229.492,-108.398,-965.332,0.000
1746583603.774,383.789,51.270,6.348,534.668,0.000
1746583603.778,-843.750,144.043,40.039,-890.137,0.000
1746583603.782,-215.332,-109.863,-56.641,-306.152,0.000
1746583603.785,-1000.000,-230.469,-103.027,-1000.000,0.000
1746583603.789,-145.508,-10.742,-16.602,-59.570,0.000
1746583603.793,-801.758,172.363,51.270,-789.551,0.000
1746583603.797,223.145,-40.527,-41.016,188.965,0.000
1746583603.801,-1000.000,-253.418,-130.859,-1000.000,0.000
1746583603.805,-264.648,-58.594,-71.289,-260.742,0.000
1746583603.809,-809.082,191.406,44.434,-809.082,0.000
1746583603.813,281.738,33.203,-0.977,261.719,0.000
1746583603.817,-1000.000,-253.906,-120.605,-1000.000,0.000
1746583603.821,-661.133,-191.406,-73.242,-587.402,0.000
1746583603.824,960.938,113.281,57.617,-978.027,0.000
1746583603.828,746.582,106.445,62.988,694.336,0.000
1746583603.832,-810.059,-200.684,-42.480,-874.023,0.000
1746583603.836,-1000.000,-244.629,-54.199,-1000.000,0.000
1746583603.840,193.848,19.531,48.828,320.801,0.000
1746583603.844,-806.641,107.910,79.102,-819.824,0.000
1746583603.848,-82.520,-180.664,-20.996,-146.484,0.000
1746583603.852,-1000.000,-307.617,-50.781,-1000.000,0.000
1746583603.856,-220.215,-37.598,50.293,-162.598,0.000
1746583603.860,-816.406,136.230,109.375,-803.223,0.000
1746583603.864,236.816,-104.004,16.602,227.539,0.000
1746583603.867,-1000.000,-337.402,-83.008,-1000.000,0.000
1746583603.871,-354.004,-196.777,-27.832,-303.711,0.000
1746583603.875,-840.332,81.543,91.309,-821.289,0.000
1746583603.879,445.312,-23.438,69.824,395.020,0.000
1746583603.883,-1000.000,-317.383,-40.039,-1000.000,0.000
1746583603.887,-834.473,-263.184,-31.738,-720.703,0.000
1746583603.891,736.816,64.941,65.430,877.441,0.000
1746583603.895,968.750,96.680,76.172,888.672,0.000
1746583603.899,-542.480,-198.730,-21.973,-641.113,0.000
1746583603.903,-1000.000,-247.559,-64.941,-1000.000,0.000
1746583603.907,91.797,23.438,6.348,175.781,0.000
1746583603.910,-787.598,156.250,61.035,-791.992,0.000
1746583603.914,55.176,-114.746,-23.926,1.465,0.000
1746583603.918,-1000.000,-313.477,-89.844,-1000.000,0.000
1746583603.922,-246.094,-91.797,-4.883,-240.234,0.000
1746583603.926,-815.430,164.551,80.566,-814.453,0.000
1746583603.930,240.723,-17.578,8.301,239.258,0.000
1746583603.934,-1000.000,-269.531,-87.402,-1000.000,0.000
1746583603.938,-455.078,-139.160,-45.898,-389.648,0.000
1746583603.942,-894.531,151.855,59.570,-863.281,0.000
1746583603.946,602.051,107.910,41.504,551.758,0.000
1746583603.950,-1000.000,-174.316,-72.266,-1000.000,0.000
1746583603.953,-899.414,-167.480,-68.359,-812.988,0.000
1746583603.957,642.578,100.586,47.852,760.254,0.000
1746583603.961,-916.992,120.605,66.406,-977.051,0.000
1746583603.965,-328.613,-189.941,-49.805,-420.898,0.000
1746583603.969,-1000.000,-282.715,-99.121,-1000.000,0.000
1746583603.973,-78.125,-1.465,-4.883,10.742,0.000
1746583603.977,-795.898,174.805,56.641,-787.598,0.000
1746583603.981,173.340,-70.801,-41.016,124.023,0.000
1746583603.985,-1000.000,-255.371,-115.234,-1000.000,0.000
1746583603.989,-258.301,-45.410,-35.645,-252.441,0.000
1746583603.992,-811.523,210.449,47.852,-811.523,0.000
1746583603.996,258.789,44.922,-18.066,241.211,0.000
1746583604.000,-1000.000,-261.719,-99.609,-1000.000,0.000
1746583604.004,-589.844,-164.551,-50.781,-510.254,0.000
1746583604.008,-974.609,125.977,50.781,-924.316,0.000
1746583604.012,679.688,75.195,25.879,623.047,0.000
1746583604.016,-887.207,-195.801,-84.473,-958.496,0.000
1746583604.020,-1000.000,-209.473,-93.262,-1000.000,0.000
1746583604.024,301.270,64.453,5.371,462.891,0.000
1746583604.028,-818.848,170.410,27.344,-844.727,0.000
1746583604.032,-145.508,-95.215,-85.449,-205.566,0.000
1746583604.035,-1000.000,-227.539,-116.211,-1000.000,0.000
1746583604.039,-171.387,29.297,-9.277,-82.520,0.000
1746583604.043,-805.664,210.938,55.664,-786.621,0.000
1746583604.047,228.027,-34.180,-18.555,203.613,0.000
1746583604.051,-1000.000,-271.973,-96.191,-1000.000,0.000
1746583604.055,-300.293,-104.980,-47.363,-265.137,0.000
1746583604.059,-820.312,177.246,55.664,-808.105,0.000
1746583604.063,347.168,58.105,23.438,306.152,0.000
1746583604.067,-1000.000,-234.863,-104.980,-1000.000,0.000
1746583604.071,-727.051,-180.664,-103.027,-621.094,0.000
1746583604.075,874.023,123.047,9.766,983.398,0.000
1746583604.078,858.398,133.789,15.137,785.645,0.000
1746583604.082,-680.664,-170.898,-81.543,-765.625,0.000
1746583604.086,-1000.000,-214.355,-93.750,-1000.000,0.000
1746583604.090,155.273,76.660,6.836,263.184,0.000
1746583604.094,-797.363,205.078,48.828,-805.664,0.000
1746583604.098,-32.715,-58.105,-38.574,-78.613,0.000
1746583604.102,-1000.000,-239.258,-100.098,-1000.000,0.000
1746583604.106,-236.328,-34.668,-36.133,-218.750,0.000
1746583604.110,-818.359,180.176,38.574,-812.500,0.000
1746583604.114,239.746,-1.953,-19.043,234.863,0.000
1746583604.118,-1000.000,-240.234,-108.887,-1000.000,0.000
1746583604.121,-397.949,-119.629,-67.383,-324.707,0.000
1746583604.125,-859.863,165.527,42.480,-830.566,0.000
1746583604.129,492.188,84.961,8.301,443.848,0.000
1746583604.133,-1000.000,-198.242,-100.586,-1000.000,0.000
1746583604.137,-864.258,-154.297,-84.961,-751.953,0.000
1746583604.141,696.777,135.742,22.949,840.332,0.000
1746583604.145,-999.512,157.227,32.715,934.082,0.000
1746583604.149,-482.422,-165.527,-80.078,-560.059,0.000
1746583604.153,-1000.000,-252.930,-109.375,-1000.000,0.000
1746583604.157,6.836,37.109,1.953,79.102,0.000
1746583604.160,-790.527,187.500,58.105,-789.551,0.000
1746583604.164,116.699,-88.379,-40.039,57.617,0.000
1746583604.168,-1000.000,-272.949,-118.652,-1000.000,0.000
1746583604.172,-251.953,-36.621,-49.805,-245.605,0.000
1746583604.176,-812.988,211.426,46.875,-812.988,0.000
1746583604.180,241.211,29.785,-8.789,239.746,0.000
1746583604.184,-1000.000,-233.887,-105.469,-1000.000,0.000
1746583604.188,-512.207,-115.723,-68.848,-429.199,0.000
1746583604.192,-920.898,181.152,44.922,-878.906,0.000
1746583604.196,606.934,112.793,20.508,565.918,0.000
1746583604.200,-962.402,-207.520,-94.727,-1000.000,0.000
1746583604.203,-1000.000,-228.027,-85.938,-952.637,0.000
1746583604.207,424.805,66.406,19.043,557.129,0.000
1746583604.211,-866.699,155.273,58.105,-910.156,0.000
1746583604.215,-269.043,-158.691,-34.180,-340.332,0.000
1746583604.219,-1000.000,-291.016,-93.262,-1000.000,0.000
1746583604.223,-135.742,-27.832,-10.742,-53.711,0.000
1746583604.227,-802.734,166.016,58.594,-789.062,0.000
1746583604.231,222.656,-49.805,-21.973,191.406,0.000
1746583604.235,-1000.000,-264.648,-95.703,-1000.000,0.000
1746583604.239,-266.113,-96.191,-29.297,-262.207,0.000
1746583604.243,-808.105,170.410,53.711,-807.129,0.000
1746583604.246,301.758,30.762,-11.230,275.391,0.000
1746583604.250,-1000.000,-244.629,-99.609,-1000.000,0.000
1746583604.254,-608.398,-155.273,-43.457,-539.062,0.000
1746583604.258,991.699,139.160,49.316,-954.102,0.000
1746583604.262,787.109,113.770,13.672,713.379,0.000
1746583604.266,-756.836,-186.523,-91.309,-851.074,0.000
1746583604.270,-1000.000,-233.887,-83.984,-1000.000,0.000
1746583604.274,245.117,69.824,18.555,360.840,0.000
1746583604.278,-803.711,192.383,42.969,-821.777,0.000
1746583604.282,-76.660,-92.285,-56.152,-138.672,0.000
1746583604.285,-1000.000,-263.184,-99.121,-1000.000,0.000
1746583604.289,-229.980,-27.832,-11.230,-174.805,0.000
1746583604.293,-817.383,193.848,62.500,-804.688,0.000
1746583604.297,237.305,-20.020,-18.066,228.027,0.000
1746583604.301,-1000.000,-269.531,-139.160,-1000.000,0.000
1746583604.305,-343.750,-107.910,-82.520,-291.504,0.000
1746583604.309,-835.938,201.660,57.617,-816.406,0.000
1746583604.313,411.621,83.496,17.578,369.141,0.000
1746583604.317,-1000.000,-244.141,-95.215,-1000.000,0.000
1746583604.321,-760.742,-188.965,-75.684,-672.852,0.000
1746583604.325,828.125,127.930,22.949,926.270,0.000
1746583604.328,922.852,141.113,33.203,857.422,0.000
1746583604.332,-577.637,-166.992,-75.195,-664.062,0.000
1746583604.336,-1000.000,-243.164,-116.211,-1000.000,0.000
1746583604.340,51.270,18.555,-14.648,153.320,0.000
1746583604.344,-794.922,175.293,54.688,-794.434,0.000
1746583604.348,47.363,-80.566,-38.086,-10.742,0.000
1746583604.352,-1000.000,-281.250,-118.652,-1000.000,0.000
1746583604.356,-244.141,-56.152,-29.785,-235.840,0.000
1746583604.360,-814.941,181.641,56.152,-812.988,0.000
1746583604.364,240.234,0.977,-29.785,237.305,0.000
1746583604.368,-1000.000,-242.188,-127.441,-1000.000,0.000
1746583604.371,-431.641,-105.469,-61.035,-357.422,0.000
1746583604.375,-875.000,181.152,50.781,-844.238,0.000
1746583604.379,517.578,87.402,12.695,481.934,0.000
1746583604.383,-1000.000,-218.262,-83.496,-1000.000,0.000
1746583604.387,-939.941,-206.543,-73.242,-843.750,0.000
1746583604.391,564.453,102.051,29.785,709.961,0.000
1746583604.395,-917.480,158.203,33.203,-981.445,0.000
1746583604.399,-353.027,-141.113,-94.727,-447.754,0.000
1746583604.403,-1000.000,-249.023,-125.977,-1000.000,0.000
1746583604.407,-74.219,1.953,-17.578,15.137,0.000
1746583604.410,-793.945,202.148,48.828,-784.668,0.000
1746583604.414,201.660,-24.902,-32.227,150.391,0.000
1746583604.418,-1000.000,-240.234,-104.492,-1000.000,0.000
1746583604.422,-261.230,-60.059,-37.598,-256.348,0.000
1746583604.426,-808.594,176.270,43.945,-808.105,0.000
1746583604.430,240.234,15.625,-3.906,239.746,0.000
1746583604.434,-1000.000,-258.301,-87.402,-1000.000,0.000
1746583604.438,-539.062,-145.996,-57.617,-481.445,0.000
1746583604.442,-952.637,165.527,27.832,-914.062,0.000
1746583604.446,690.918,120.605,15.625,633.301,0.000
1746583604.450,-863.281,-198.730,-90.820,-943.359,0.000
1746583604.453,-1000.000,-232.422,-107.910,-999.512,0.000
1746583604.457,308.105,41.992,2.441,477.051,0.000
1746583604.461,-824.219,167.969,39.062,-854.980,0.000
1746583604.465,-154.297,-93.262,-60.059,-219.727,0.000
1746583604.469,-1000.000,-257.324,-107.422,-1000.000,0.000
1746583604.473,-203.125,-11.719,-17.090,-124.023,0.000
1746583604.477,-814.453,191.406,44.434,-797.852,0.000
1746583604.481,232.422,-35.156,-38.086,208.984,0.000
1746583604.485,-1000.000,-250.000,-125.977,-1000.000,0.000
1746583604.489,-297.852,-84.961,-72.754,-264.648,0.000
1746583604.493,-819.824,170.898,30.273,-808.105,0.000
1746583604.496,360.840,36.133,-0.488,310.547,0.000
1746583604.500,-1000.000,-244.629,-102.539,-1000.000,0.000
1746583604.504,-694.336,-169.434,-78.613,-602.051,0.000
1746583604.508,903.320,142.578,25.391,988.770,0.000
1746583604.512,877.930,162.598,24.902,812.988,0.000
1746583604.516,-639.648,-142.090,-84.473,-716.309,0.000
1746583604.520,-1000.000,-217.285,-113.770,-1000.000,0.000
1746583604.524,133.789,64.941,-12.207,226.562,0.000
1746583604.528,-798.340,196.777,33.203,-804.688,0.000
1746583604.532,-29.297,-75.684,-54.199,-76.660,0.000
1746583604.536,-1000.000,-237.793,-113.281,-1000.000,0.000
1746583604.539,-236.328,-33.691,-33.203,-214.844,0.000
1746583604.543,-815.918,176.758,45.410,-811.035,0.000
1746583604.547,238.281,4.395,-28.809,233.887,0.000
1746583604.551,-1000.000,-250.000,-121.094,-1000.000,0.000
1746583604.555,-358.887,-83.984,-70.801,-312.012,0.000
1746583604.559,-844.238,211.914,44.922,-825.684,0.000
1746583604.563,485.840,100.098,13.672,439.941,0.000
1746583604.567,-1000.000,-194.824,-104.492,-1000.000,0.000
1746583604.571,-888.672,-186.523,-89.844,-785.645,0.000
1746583604.575,677.734,111.328,14.160,811.035,0.000
1746583604.578,980.957,146.484,24.414,917.969,0.000
1746583604.582,-510.254,-178.711,-68.359,-589.844,0.000
1746583604.586,-1000.000,-250.488,-94.727,-1000.000,0.000
1746583604.590,-31.250,47.363,0.000,62.012,0.000
1746583604.594,-801.758,215.332,50.293,-795.410,0.000
1746583604.598,87.402,-46.387,-45.898,38.574,0.000
1746583604.602,-1000.000,-238.770,-114.258,-1000.000,0.000
1746583604.606,-246.582,-17.578,-41.504,-242.676,0.000
1746583604.610,-816.406,224.121,44.922,-815.918,0.000
1746583604.614,242.676,7.812,-29.785,241.699,0.000
1746583604.618,-1000.000,-289.062,-120.117,-1000.000,0.000
1746583604.621,-536.133,-169.922,-72.266,-464.355,0.000
1746583604.625,-933.105,148.438,27.344,-894.043,0.000
1746583604.629,606.445,119.141,16.113,560.059,0.000
1746583604.633,-977.051,-186.523,-89.844,-1000.000,0.000
1746583604.637,-1000.000,-198.242,-87.891,-928.223,0.000
1746583604.641,437.988,89.844,20.020,565.918,0.000
1746583604.645,-835.449,185.547,47.363,-877.930,0.000
1746583604.649,-178.711,-75.195,-62.500,-269.531,0.000
1746583604.653,-1000.000,-224.609,-138.672,-1000.000,0.000
1746583604.657,-144.043,-20.508,-44.922,-54.199,0.000
1746583604.661,-799.316,173.340,42.969,-786.621,0.000
1746583604.664,222.656,-46.875,-45.898,186.035,0.000
1746583604.668,-1000.000,-285.156,-122.559,-1000.000,0.000
1746583604.672,-266.113,-78.125,-51.270,-261.719,0.000
1746583604.676,-808.105,185.059,41.992,-807.617,0.000
1746583604.680,306.641,33.691,-12.207,277.832,0.000
1746583604.684,-1000.000,-229.980,-128.418,-1000.000,0.000
1746583604.688,-615.234,-133.301,-95.703,-543.457,0.000
1746583604.692,993.652,169.922,29.297,-954.102,0.000
1746583604.696,771.973,148.926,20.020,707.031,0.000
1746583604.700,-765.625,-156.738,-108.398,-851.074,0.000
1746583604.703,-1000.000,-204.102,-112.305,-1000.000,0.000
1746583604.707,200.195,75.684,-1.465,333.984,0.000
1746583604.711,-805.176,184.082,39.551,-820.801,0.000
1746583604.715,-79.102,-113.770,-41.992,-146.484,0.000
1746583604.719,-1000.000,-263.184,-103.027,-1000.000,0.000
1746583604.723,-226.562,-7.324,-30.762,-166.016,0.000
1746583604.727,-816.406,182.617,43.945,-802.734,0.000
1746583604.731,236.328,-21.484,-31.738,226.562,0.000
1746583604.735,-1000.000,-232.910,-131.836,-1000.000,0.000
1746583604.739,-331.543,-76.172,-84.961,-281.738,0.000
1746583604.743,-832.031,198.730,28.320,-813.477,0.000
1746583604.746,428.223,84.961,2.441,387.207,0.000
1746583604.750,-1000.000,-204.102,-107.910,-1000.000,0.000
1746583604.754,-756.836,-153.809,-85.938,-667.969,0.000
1746583604.758,844.727,137.207,21.973,940.430,0.000
1746583604.762,905.762,149.414,23.926,844.727,0.000
1746583604.766,-613.281,-152.832,-86.914,-687.012,0.000
1746583604.770,-1000.000,-215.820,-112.793,-1000.000,0.000
1746583604.774,108.398,64.453,3.906,194.336,0.000
1746583604.778,-786.133,199.707,48.340,-791.016,0.000
1746583604.782,60.547,-63.477,-65.918,7.812,0.000
1746583604.786,-1000.000,-263.184,-133.789,-1000.000,0.000
1746583604.789,-247.070,-22.461,-55.664,-237.793,0.000
1746583604.793,-813.965,233.398,29.297,-812.500,0.000
1746583604.797,240.234,3.418,-42.480,237.793,0.000
1746583604.801,-1000.000,-271.484,-136.230,-1000.000,0.000
1746583604.805,-444.824,-112.305,-74.707,-376.953,0.000
1746583604.809,-886.719,191.895,42.969,-854.980,0.000
1746583604.813,577.148,124.512,18.066,521.484,0.000
1746583604.817,-1000.000,-172.363,-91.309,-1000.000,0.000
1746583604.821,-943.848,-179.688,-83.984,-850.098,0.000
1746583604.825,593.262,100.098,14.160,724.121,0.000
1746583604.829,-946.289,159.668,27.832,995.605,0.000
1746583604.832,-398.926,-133.789,-62.012,-487.305,0.000
1746583604.836,-1000.000,-226.074,-103.516,-1000.000,0.000
1746583604.840,-61.523,59.570,-28.809,35.156,0.000
1746583604.844,-795.898,225.098,26.855,-787.109,0.000
1746583604.848,164.062,-39.062,-52.246,107.422,0.000
1746583604.852,-1000.000,-249.023,-112.793,-1000.000,0.000
1746583604.856,-256.348,-42.969,-45.898,-250.977,0.000
1746583604.860,-812.500,199.219,29.297,-812.500,0.000
1746583604.864,241.211,27.344,-15.137,241.211,0.000
1746583604.868,-1000.000,-229.980,-87.891,-1000.000,0.000
1746583604.871,-579.102,-118.652,-70.312,-504.395,0.000
1746583604.875,-971.680,180.664,14.160,-921.387,0.000
1746583604.879,678.711,141.113,14.160,620.117,0.000
1746583604.883,-906.738,-166.992,-103.516,-973.145,0.000
1746583604.887,-1000.000,-187.500,-120.605,-967.285,0.000
1746583604.891,382.324,101.562,1.465,513.184,0.000
1746583604.895,-827.637,186.035,40.527,-854.492,0.000
1746583604.899,-149.414,-87.891,-56.152,-208.984,0.000
1746583604.903,-1000.000,-232.910,-91.309,-1000.000,0.000
1746583604.907,-196.777,-3.418,-17.090,-115.723,0.000
1746583604.911,-811.035,207.520,36.133,-793.945,0.000
1746583604.914,229.492,-0.488,-32.715,219.727,0.000
1746583604.918,-1000.000,-246.094,-116.211,-1000.000,0.000
1746583604.922,-267.090,-65.430,-58.105,-266.113,0.000
1746583604.926,-809.082,230.469,36.621,-807.129,0.000
1746583604.930,345.215,92.773,-5.859,306.641,0.000
1746583604.934,-1000.000,-224.609,-100.586,-1000.000,0.000
1746583604.938,-728.516,-167.969,-69.824,-617.676,0.000
1746583604.942,892.090,148.926,28.320,-997.559,0.000
1746583604.946,808.105,139.648,14.160,736.816,0.000
1746583604.950,-740.234,-176.758,-96.191,-817.871,0.000
1746583604.954,-1000.000,-208.008,-113.281,-1000.000,0.000
1746583604.957,141.602,89.355,-5.371,242.676,0.000
1746583604.961,-800.293,214.355,35.156,-807.129,0.000
1746583604.965,-35.156,-80.078,-71.289,-83.984,0.000
1746583604.969,-1000.000,-263.672,-133.789,-1000.000,0.000
1746583604.973,-235.840,-21.484,-37.598,-208.984,0.000
1746583604.977,-817.383,220.703,52.246,-810.547,0.000
1746583604.981,239.258,41.016,-22.461,233.398,0.000
1746583604.985,-1000.000,-234.863,-115.234,-1000.000,0.000
1746583604.989,-377.441,-110.352,-64.941,-317.871,0.000
1746583604.993,-850.586,177.246,29.785,-827.148,0.000
1746583604.996,467.773,58.105,-1.953,425.293,0.000
1746583605.000,-1000.000,-227.051,-98.633,-1000.000,0.000
1746583605.004,-872.559,-187.988,-88.379,-763.184,0.000
1746583605.008,676.270,109.863,16.113,819.336,0.000
1746583605.012,-987.793,162.598,9.277,947.754,0.000
1746583605.016,-472.168,-126.953,-92.773,-549.805,0.000
1746583605.020,-1000.000,-245.117,-104.492,-1000.000,0.000
1746583605.024,21.484,26.367,-5.859,96.191,0.000
1746583605.028,-791.016,200.684,41.992,-788.574,0.000
1746583605.032,89.355,-65.430,-55.664,46.387,0.000
1746583605.036,-1000.000,-260.254,-128.418,-1000.000,0.000
1746583605.039,-248.535,-42.969,-52.734,-244.141,0.000
1746583605.043,-814.941,197.266,38.574,-812.988,0.000
1746583605.047,241.699,24.414,-32.227,240.234,0.000
1746583605.051,-1000.000,-232.910,-131.348,-1000.000,0.000
1746583605.055,-505.859,-128.906,-77.637,-421.875,0.000
1746583605.059,-917.969,160.645,46.875,-875.977,0.000
1746583605.063,604.492,114.746,43.457,560.059,0.000
1746583605.067,-976.562,-181.152,-78.125,-1000.000,0.000
1746583605.071,-997.559,-164.551,-96.680,-908.691,0.000
1746583605.075,472.168,128.906,0.977,612.793,0.000
1746583605.079,-857.910,177.246,31.738,-905.762,0.000
1746583605.082,-236.328,-122.559,-52.246,-321.777,0.000
1746583605.086,-1000.000,-239.746,-108.887,-1000.000,0.000
1746583605.090,-132.812,22.949,-34.668,-44.434,0.000
1746583605.094,-800.293,217.773,21.973,-788.086,0.000
1746583605.098,221.680,-10.254,-73.242,182.129,0.000
1746583605.102,-1000.000,-228.516,-151.855,-1000.000,0.000
1746583605.106,-264.648,-29.297,-79.102,-260.254,0.000
1746583605.110,-809.082,251.953,18.555,-809.082,0.000
1746583605.114,278.809,83.496,-47.363,258.789,0.000
1746583605.118,-1000.000,-193.848,-153.809,-1000.000,0.000
1746583605.122,-630.859,-92.773,-121.094,-564.453,0.000
1746583605.125,989.746,193.359,-10.254,-963.867,0.000
1746583605.129,738.281,175.781,-12.695,686.035,0.000
1746583605.133,-822.266,-125.488,-129.395,-886.719,0.000
1746583605.137,-1000.000,-165.039,-150.391,-1000.000,0.000
1746583605.141,244.629,115.723,-50.781,369.141,0.000
1746583605.145,-811.035,229.492,2.930,-833.008,0.000
1746583605.149,-105.469,-41.992,-61.035,-168.457,0.000
1746583605.153,-1000.000,-220.215,-116.699,-1000.000,0.000
1746583605.157,-229.980,18.066,-60.059,-187.988,0.000
1746583605.161,-819.824,238.281,0.977,-810.059,0.000
1746583605.164,237.793,35.156,-64.941,230.469,0.000
1746583605.168,-1000.000,-195.312,-147.461,-1000.000,0.000
1746583605.172,-339.355,-79.102,-90.820,-287.109,0.000
1746583605.176,-834.473,216.309,19.043,-815.430,0.000
1746583605.180,416.016,122.559,-12.207,373.535,0.000
1746583605.184,-1000.000,-201.172,-117.188,-1000.000,0.000
1746583605.188,-773.438,-141.113,-85.449,-687.500,0.000
1746583605.192,831.543,167.480,36.621,925.293,0.000
1746583605.196,886.719,169.434,18.066,827.148,0.000
1746583605.200,-635.742,-150.879,-111.816,-707.520,0.000
1746583605.204,-1000.000,-226.562,-124.512,-1000.000,0.000
1746583605.207,61.035,56.641,-31.738,163.086,0.000
1746583605.211,-792.480,230.957,8.301,-792.480,0.000
1746583605.215,65.430,-20.020,-66.895,4.883,0.000
1746583605.219,-1000.000,-236.816,-125.000,-1000.000,0.000
1746583605.223,-246.582,-36.621,-51.270,-233.398,0.000
1746583605.227,-814.453,187.988,31.738,-812.012,0.000
1746583605.231,240.723,-14.648,-30.762,238.281,0.000
1746583605.235,-1000.000,-265.625,-129.395,-1000.000,0.000
1746583605.239,-454.590,-134.277,-77.637,-390.625,0.000
1746583605.243,-887.207,146.484,32.715,-857.910,0.000
1746583605.247,541.992,97.656,10.254,494.141,0.000
1746583605.250,-1000.000,-169.922,-95.703,-1000.000,0.000
1746583605.254,-934.570,-164.062,-107.422,-839.355,0.000
1746583605.258,574.219,122.559,-8.301,713.867,0.000
1746583605.262,-911.133,163.086,16.602,-978.516,0.000
1746583605.266,-335.449,-131.348,-69.824,-438.477,0.000
1746583605.270,-1000.000,-244.141,-102.539,-1000.000,0.000
1746583605.274,-78.613,5.859,-25.879,10.742,0.000
1746583605.278,-796.387,201.172,40.039,-789.062,0.000
1746583605.282,174.805,-44.922,-40.039,116.211,0.000
1746583605.286,-1000.000,-270.508,-119.141,-1000.000,0.000
1746583605.289,-257.324,-65.430,-54.688,-251.465,0.000
1746583605.293,-810.059,205.078,31.250,-810.547,0.000
1746583605.297,245.117,51.270,-13.672,240.234,0.000
1746583605.301,-1000.000,-221.680,-102.539,-1000.000,0.000
1746583605.305,-530.273,-114.746,-67.871,-466.309,0.000
1746583605.309,-946.289,172.852,39.551,-904.785,0.000
1746583605.313,684.082,119.141,29.785,621.094,0.000
1746583605.317,-872.559,-187.988,-81.055,-952.637,0.000
1746583605.321,-1000.000,-194.336,-92.773,-993.164,0.000
1746583605.325,328.613,112.305,21.973,490.234,0.000
1746583605.329,-827.637,195.312,45.898,-864.746,0.000
1746583605.332,-168.457,-89.355,-88.867,-246.094,0.000
1746583605.336,-1000.000,-244.141,-135.742,-1000.000,0.000
1746583605.340,-188.477,-26.855,-22.461,-106.445,0.000
1746583605.344,-810.059,200.684,57.129,-794.922,0.000
1746583605.348,229.004,5.371,-32.715,205.078,0.000
1746583605.352,-1000.000,-214.844,-124.512,-1000.000,0.000
1746583605.356,-265.625,-34.668,-53.223,-263.184,0.000
1746583605.360,-808.594,231.445,37.598,-808.594,0.000
1746583605.364,311.523,60.059,-7.812,290.039,0.000
1746583605.368,-1000.000,-239.258,-99.121,-1000.000,0.000
1746583605.372,-706.055,-153.320,-79.102,-606.445,0.000
1746583605.375,890.625,148.926,31.738,994.629,0.000
1746583605.379,853.027,138.184,45.898,773.438,0.000
1746583605.383,-685.059,-177.246,-72.266,-780.762,0.000
1746583605.387,-1000.000,-209.473,-120.117,-1000.000,0.000
1746583605.391,157.227,91.309,-21.973,277.344,0.000
1746583605.395,-797.363,208.496,41.016,-805.664,0.000
1746583605.399,-31.738,-49.805,-49.316,-79.590,0.000
1746583605.403,-1000.000,-225.098,-104.980,-1000.000,0.000
1746583605.407,-236.328,-15.137,-12.695,-208.008,0.000
1746583605.411,-818.359,220.215,61.523,-809.570,0.000
1746583605.415,240.234,2.441,-15.137,233.398,0.000
1746583605.418,-1000.000,-277.832,-106.934,-1000.000,0.000
1746583605.422,-404.785,-117.676,-51.270,-325.195,0.000
1746583605.426,-862.305,188.477,62.500,-830.078,0.000
1746583605.430,487.793,88.867,4.883,437.500,0.000
1746583605.434,-1000.000,-215.332,-113.770,-1000.000,0.000
1746583605.438,-854.980,-174.316,-87.402,-739.258,0.000
1746583605.442,702.637,129.883,18.555,849.121,0.000
1746583605.446,-991.211,175.781,28.320,940.430,0.000
1746583605.450,-469.727,-98.633,-70.312,-549.805,0.000
1746583605.454,-1000.000,-198.242,-99.609,-1000.000,0.000
1746583605.457,17.578,35.156,-9.766,91.309,0.000
1746583605.461,-791.016,187.012,45.410,-789.062,0.000
1746583605.465,91.797,-59.082,-40.039,46.387,0.000
1746583605.469,-1000.000,-254.883,-102.539,-1000.000,0.000
1746583605.473,-248.535,-41.016,-37.109,-244.141,0.000
1746583605.477,-814.453,215.332,34.180,-812.988,0.000
1746583605.481,241.699,41.504,-40.527,240.234,0.000
1746583605.485,-1000.000,-208.008,-122.559,-1000.000,0.000
1746583605.489,-508.789,-117.188,-55.664,-424.316,0.000
1746583605.493,-914.062,166.016,41.992,-871.582,0.000
1746583605.497,567.871,129.395,13.672,516.113,0.000
1746583605.500,-977.539,-205.566,-91.309,-1000.000,0.000
1746583605.504,-1000.000,-225.098,-98.633,-957.520,0.000
1746583605.508,383.789,88.867,-6.348,535.645,0.000
1746583605.512,-864.746,180.176,31.250,-914.062,0.000
1746583605.516,-265.625,-101.562,-62.988,-349.609,0.000
1746583605.520,-1000.000,-233.398,-102.051,-1000.000,0.000
1746583605.524,-161.621,6.348,2.441,-62.012,0.000
1746583605.528,-812.012,189.941,51.270,-795.410,0.000
1746583605.532,198.730,-52.734,-51.758,150.391,0.000
1746583605.536,-1000.000,-258.301,-124.512,-1000.000,0.000
1746583605.540,-261.230,-53.223,-56.152,-256.348,0.000
1746583605.543,-810.547,208.008,37.598,-811.035,0.000
1746583605.547,305.664,53.223,-4.395,277.344,0.000
1746583605.551,-1000.000,-236.816,-113.281,-1000.000,0.000
1746583605.555,-635.254,-179.688,-76.660,-566.895,0.000
1746583605.559,994.141,139.648,43.457,-959.473,0.000
1746583605.563,728.027,145.020,19.043,671.387,0.000
1746583605.567,-834.473,-184.570,-97.656,-901.855,0.000
1746583605.571,-1000.000,-219.238,-104.004,-1000.000,0.000
1746583605.575,247.070,91.797,17.090,367.676,0.000
1746583605.579,-806.641,207.520,54.688,-824.707,0.000
1746583605.582,-86.914,-79.102,-69.824,-151.855,0.000
1746583605.586,-1000.000,-224.121,-130.859,-1000.000,0.000
1746583605.590,-224.609,16.602,-32.227,-163.574,0.000
1746583605.594,-815.430,222.656,48.828,-801.758,0.000
1746583605.598,234.863,-0.977,-35.645,225.586,0.000
1746583605.602,-1000.000,-232.422,-114.746,-1000.000,0.000
1746583605.606,-312.988,-70.801,-38.086,-268.555,0.000
1746583605.610,-825.684,187.500,55.664,-808.594,0.000
1746583605.614,419.434,80.566,6.836,375.488,0.000
1746583605.618,-1000.000,-218.750,-105.469,-1000.000,0.000
1746583605.622,-724.121,-159.180,-89.355,-637.207,0.000
1746583605.625,852.539,155.762,26.855,952.148,0.000
1746583605.629,964.355,170.410,41.504,884.277,0.000
1746583605.633,-524.902,-133.301,-67.871,-634.766,0.000
1746583605.637,-1000.000,-210.449,-100.586,-1000.000,0.000
1746583605.641,144.531,80.566,-3.418,241.699,0.000
1746583605.645,-790.039,199.219,29.785,-799.316,0.000
1746583605.649,-1.465,-93.750,-69.824,-52.734,0.000
1746583605.653,-1000.000,-271.484,-115.723,-1000.000,0.000
1746583605.657,-239.746,-30.762,-35.156,-234.863,0.000
1746583605.661,-818.359,207.520,38.086,-817.383,0.000
1746583605.665,241.699,-0.977,-23.438,239.746,0.000
1746583605.668,-1000.000,-270.020,-116.211,-1000.000,0.000
1746583605.672,-451.172,-120.117,-68.848,-383.789,0.000
1746583605.676,-884.277,187.012,45.410,-854.980,0.000
1746583605.680,527.832,122.559,27.832,489.258,0.000
1746583605.684,-1000.000,-174.316,-72.266,-1000.000,0.000
1746583605.688,-939.453,-170.410,-82.031,-844.238,0.000
1746583605.692,575.684,112.305,8.301,720.215,0.000
1746583605.696,-934.570,142.578,32.227,995.605,0.000
1746583605.700,-384.277,-146.973,-69.336,-489.258,0.000
1746583605.704,-1000.000,-244.141,-95.703,-1000.000,0.000
1746583605.708,-57.617,22.461,0.977,40.527,0.000
1746583605.711,-793.945,191.406,54.199,-786.133,0.000
1746583605.715,170.898,-60.059,-32.227,111.328,0.000
1746583605.719,-1000.000,-229.004,-112.793,-1000.000,0.000
1746583605.723,-257.812,-27.832,-48.828,-251.953,0.000
1746583605.727,-810.547,211.914,42.969,-811.523,0.000
1746583605.731,247.070,58.105,-0.488,241.211,0.000
1746583605.735,-1000.000,-232.910,-96.191,-1000.000,0.000
1746583605.739,-554.688,-148.438,-67.383,-491.699,0.000
1746583605.743,-945.312,155.273,41.992,-909.668,0.000
1746583605.747,628.418,108.398,21.484,588.867,0.000
1746583605.750,-938.965,-196.777,-83.496,-990.234,0.000
1746583605.754,-1000.000,-214.844,-85.449,-977.051,0.000
1746583605.758,346.680,84.473,-1.953,503.906,0.000
1746583605.762,-832.031,191.895,18.066,-872.070,0.000
1746583605.766,-181.152,-96.191,-67.871,-263.184,0.000
1746583605.770,-1000.000,-246.582,-103.027,-1000.000,0.000
1746583605.774,-181.641,-10.742,-16.113,-96.191,0.000
1746583605.778,-809.082,201.172,47.363,-792.969,0.000
1746583605.782,228.027,-7.324,-39.062,207.520,0.000
1746583605.786,-1000.000,-237.305,-117.188,-1000.000,0.000
1746583605.790,-266.602,-62.012,-53.711,-264.648,0.000
1746583605.793,-808.594,186.523,40.039,-807.129,0.000
1746583605.797,338.379,45.898,7.812,300.781,0.000
1746583605.801,-1000.000,-241.699,-95.703,-1000.000,0.000
1746583605.805,-656.738,-156.738,-84.473,-589.844,0.000
1746583605.809,949.219,162.598,32.715,-991.699,0.000
1746583605.813,833.496,139.160,54.688,763.184,0.000
1746583605.817,-692.871,-165.039,-64.941,-788.086,0.000
1746583605.821,-1000.000,-202.637,-122.070,-1000.000,0.000
1746583605.825,164.551,82.520,-35.645,286.621,0.000
1746583605.829,-800.781,196.777,21.484,-811.035,0.000
1746583605.833,-51.758,-108.398,-62.988,-105.957,0.000
1746583605.836,-1000.000,-277.344,-106.934,-1000.000,0.000
1746583605.840,-234.375,-13.184,-10.742,-205.078,0.000
1746583605.844,-818.359,220.215,68.848,-811.035,0.000
1746583605.848,239.258,-9.277,-1.465,233.398,0.000
1746583605.852,-1000.000,-280.273,-90.820,-1000.000,0.000
1746583605.856,-377.930,-125.488,-47.852,-316.406,0.000
1746583605.860,-851.074,180.176,46.875,-826.172,0.000
1746583605.864,465.332,70.312,15.137,418.457,0.000
1746583605.868,-1000.000,-216.309,-93.262,-1000.000,0.000
1746583605.872,-841.797,-173.828,-77.637,-732.422,0.000
1746583605.875,719.238,107.910,42.969,856.934,0.000
1746583605.879,995.605,129.395,62.012,926.758,0.000
1746583605.883,-489.746,-165.527,-51.270,-573.730,0.000
1746583605.887,-1000.000,-237.793,-85.449,-1000.000,0.000
1746583605.891,32.227,46.875,11.230,112.793,0.000
1746583605.895,-791.016,202.148,60.059,-790.039,0.000
1746583605.899,77.637,-72.266,-42.480,29.297,0.000
1746583605.903,-1000.000,-284.180,-126.465,-1000.000,0.000
1746583605.907,-247.070,-68.359,-39.551,-242.676,0.000
1746583605.911,-815.430,195.312,68.848,-814.453,0.000
1746583605.915,242.188,25.391,5.371,240.723,0.000
1746583605.918,-1000.000,-227.539,-117.676,-1000.000,0.000
1746583605.922,-514.160,-100.098,-71.289,-429.688,0.000
1746583605.926,-920.898,185.547,54.688,-877.441,0.000
1746583605.930,593.262,106.445,18.066,545.410,0.000
1746583605.934,-988.281,-212.402,-88.379,-1000.000,0.000
1746583605.938,-988.770,-207.031,-77.148,-886.230,0.000
1746583605.942,496.094,87.891,13.672,650.879,0.000
1746583605.946,-882.812,147.949,34.668,-936.523,0.000
1746583605.950,-297.852,-149.414,-51.758,-377.441,0.000
1746583605.954,-1000.000,-235.840,-82.031,-1000.000,0.000
1746583605.958,-80.078,56.641,-3.906,0.488,0.000
1746583605.961,-792.969,234.375,26.855,-784.668,0.000
1746583605.965,196.777,-25.879,-64.941,154.785,0.000
1746583605.969,-1000.000,-258.789,-119.141,-1000.000,0.000
1746583605.973,-263.184,-60.059,-38.574,-257.812,0.000
1746583605.977,-809.570,195.312,58.594,-809.082,0.000
1746583605.981,280.762,16.602,17.090,256.836,0.000
1746583605.985,-1000.000,-269.043,-93.750,-1000.000,0.000
1746583605.989,-593.262,-149.902,-65.430,-514.648,0.000
1746583605.993,-988.281,159.668,51.758,-937.012,0.000
1746583605.997,737.793,126.465,29.785,680.176,0.000
1746583606.001,-823.730,-180.664,-94.727,-895.020,0.000
1746583606.004,-1000.000,-229.004,-100.586,-1000.000,0.000
1746583606.008,286.133,99.609,28.320,424.805,0.000
1746583606.012,-807.129,232.910,62.500,-832.031,0.000
1746583606.016,-80.078,-79.590,-63.477,-156.250,0.000
1746583606.020,-1000.000,-245.605,-115.723,-1000.000,0.000
1746583606.024,-222.168,-19.043,-8.301,-156.250,0.000
1746583606.028,-814.453,167.480,59.570,-800.781,0.000
1746583606.032,235.352,-41.016,-39.062,219.727,0.000
1746583606.036,-1000.000,-274.414,-117.676,-1000.000,0.000
1746583606.040,-328.125,-112.305,-49.805,-274.414,0.000
1746583606.043,-830.566,177.246,43.457,-811.523,0.000
1746583606.047,409.668,66.895,9.277,361.816,0.000
1746583606.051,-1000.000,-237.793,-98.633,-1000.000,0.000
1746583606.055,-745.117,-169.922,-84.473,-648.926,0.000
1746583606.059,858.887,152.344,46.387,958.008,0.000
1746583606.063,887.695,150.391,41.016,826.660,0.000
1746583606.067,-642.578,-166.016,-101.562,-712.891,0.000
1746583606.071,-1000.000,-235.840,-116.699,-1000.000,0.000
1746583606.075,139.160,74.219,5.859,232.422,0.000
1746583606.079,-791.016,207.031,53.711,-798.340,0.000
1746583606.083,10.254,-76.660,-40.039,-43.457,0.000
1746583606.086,-1000.000,-256.348,-104.004,-1000.000,0.000
1746583606.090,-241.211,-38.086,-16.113,-227.539,0.000
1746583606.094,-816.406,195.312,77.637,-812.988,0.000
1746583606.098,240.234,5.859,6.836,236.328,0.000
1746583606.102,-1000.000,-248.047,-86.914,-1000.000,0.000
1746583606.106,-420.410,-118.652,-20.020,-338.867,0.000
1746583606.110,-869.141,152.832,90.820,-835.449,0.000
1746583606.114,496.094,33.203,43.457,451.660,0.000
1746583606.118,-1000.000,-285.645,-64.453,-1000.000,0.000
1746583606.122,-893.066,-247.070,-42.969,-812.500,0.000
1746583606.126,610.840,56.641,68.848,729.492,0.000
1746583606.129,-895.996,105.469,83.008,-963.379,0.000
1746583606.133,-316.406,-196.289,-20.508,-420.410,0.000
1746583606.137,-1000.000,-303.223,-48.828,-1000.000,0.000
1746583606.141,-2.930,-31.250,45.898,68.359,0.000
1746583606.145,-781.738,113.281,94.727,-781.250,0.000
1746583606.149,162.598,-113.281,1.953,105.469,0.000
1746583606.153,-1000.000,-293.945,-77.637,-1000.000,0.000
1746583606.157,-258.301,-107.910,-0.488,-251.465,0.000
1746583606.161,-810.547,148.926,104.004,-810.547,0.000
1746583606.165,244.629,-2.441,35.645,240.234,0.000
1746583606.168,-1000.000,-286.133,-75.684,-1000.000,0.000
1746583606.172,-537.109,-164.062,-31.250,-466.797,0.000
1746583606.176,-932.617,165.527,83.496,-896.973,0.000
1746583606.180,612.793,86.426,74.219,579.590,0.000
1746583606.184,-957.520,-242.188,-57.617,-995.605,0.000
1746583606.188,-1000.000,-230.469,-79.590,-965.332,0.000
1746583606.192,388.672,66.895,43.457,531.738,0.000
1746583606.196,-852.051,138.672,67.871,-895.508,0.000
1746583606.200,-225.098,-132.812,-45.898,-307.129,0.000
1746583606.204,-1000.000,-270.996,-92.285,-1000.000,0.000
1746583606.208,-193.359,-41.992,0.488,-108.887,0.000
1746583606.211,-814.941,181.152,80.566,-799.316,0.000
1746583606.215,230.469,-33.203,-1.953,203.613,0.000
1746583606.219,-1000.000,-263.184,-99.609,-1000.000,0.000
1746583606.223,-265.137,-82.031,-49.316,-262.695,0.000
1746583606.227,-808.594,180.664,41.016,-808.105,0.000
1746583606.231,309.082,34.180,2.930,285.156,0.000
1746583606.235,-1000.000,-274.414,-113.281,-1000.000,0.000
1746583606.239,-648.438,-185.059,-89.844,-584.473,0.000
1746583606.243,949.707,164.551,38.574,-990.234,0.000
1746583606.247,834.961,166.016,38.574,760.742,0.000
1746583606.251,-689.941,-156.738,-76.660,-791.992,0.000
1746583606.254,-1000.000,-229.980,-98.145,-1000.000,0.000
1746583606.258,163.574,37.109,2.930,292.969,0.000
1746583606.262,-801.758,156.250,49.805,-812.012,0.000
1746583606.266,-56.152,-116.699,-66.406,-112.793,0.000
1746583606.270,-1000.000,-280.273,-127.441,-1000.000,0.000
1746583606.274,-233.887,-30.273,-18.066,-191.895,0.000
1746583606.278,-817.383,191.406,65.430,-807.617,0.000
1746583606.282,238.281,-18.066,-13.184,230.469,0.000
1746583606.286,-1000.000,-248.535,-98.633,-1000.000,0.000
1746583606.290,-349.121,-83.008,-35.156,-301.758,0.000
1746583606.294,-837.402,205.566,55.664,-820.312,0.000
1746583606.297,412.598,82.031,3.418,375.000,0.000
1746583606.301,-1000.000,-228.516,-96.191,-1000.000,0.000
1746583606.305,-812.988,-183.594,-76.172,-715.332,0.000
1746583606.309,750.488,119.141,32.227,874.512,0.000
1746583606.313,971.191,136.230,39.551,896.973,0.000
1746583606.317,-522.461,-137.207,-80.078,-615.723,0.000
1746583606.321,-1000.000,-203.613,-108.887,-1000.000,0.000
1746583606.325,38.086,51.270,-1.953,123.535,0.000
1746583606.329,-794.434,214.355,38.086,-794.922,0.000
1746583606.333,54.199,-41.504,-80.078,-2.441,0.000
1746583606.336,-1000.000,-204.102,-162.598,-1000.000,0.000
1746583606.340,-244.629,14.648,-82.031,-239.258,0.000
1746583606.344,-817.871,232.910,1.953,-816.895,0.000
1746583606.348,244.141,60.547,-72.754,243.164,0.000
1746583606.352,-1000.000,-199.219,-161.133,-1000.000,0.000
1746583606.356,-499.512,-72.754,-120.605,-413.086,0.000
1746583606.360,-977.051,224.609,-39.551,-932.617,0.000
1746583606.364,485.840,157.715,-63.965,437.988,0.000
1746583606.368,-992.676,-136.719,-169.922,-1000.000,0.000
1746583606.372,-977.539,-132.324,-171.875,-872.070,0.000
1746583606.376,496.094,164.062,-45.410,655.273,0.000
1746583606.379,-870.117,213.379,-0.977,-923.340,0.000
1746583606.383,-277.344,-82.520,-104.004,-360.352,0.000
1746583606.387,-1000.000,-190.918,-149.902,-1000.000,0.000
1746583606.391,-62.012,67.383,-59.570,32.715,0.000
1746583606.395,-790.039,235.352,7.812,-780.762,0.000
1746583606.399,180.664,-13.672,-64.453,131.836,0.000
1746583606.403,-1000.000,-230.469,-146.973,-1000.000,0.000
1746583606.407,-262.695,-31.250,-62.012,-256.348,0.000
1746583606.411,-809.082,250.977,37.109,-809.570,0.000
1746583606.415,301.758,97.656,-34.668,269.531,0.000
1746583606.419,-1000.000,-200.684,-129.395,-1000.000,0.000
1746583606.422,-550.781,-109.863,-104.004,-489.746,0.000
1746583606.426,-959.961,202.148,-7.324,-923.828,0.000
1746583606.430,732.422,170.898,-7.812,679.688,0.000
1746583606.434,-818.359,-156.250,-104.980,-895.996,0.000
1746583606.438,-1000.000,-206.543,-104.004,-1000.000,0.000
1746583606.442,320.801,102.051,7.812,478.027,0.000
1746583606.446,-831.543,186.523,33.691,-866.211,0.000
1746583606.450,-178.711,-119.141,-75.684,-245.605,0.000
1746583606.454,-1000.000,-223.633,-119.629,-1000.000,0.000
1746583606.458,-213.379,41.016,-23.926,-147.949,0.000
1746583606.461,-818.359,236.816,32.227,-804.688,0.000
1746583606.465,233.398,5.371,-47.363,220.703,0.000
1746583606.469,-1000.000,-241.699,-127.930,-1000.000,0.000
1746583606.473,-283.691,-59.082,-77.148,-266.602,0.000
1746583606.477,-815.430,243.164,28.809,-808.594,0.000
1746583606.481,385.254,103.027,-9.766,339.355,0.000
1746583606.485,-1000.000,-215.820,-105.469,-1000.000,0.000
1746583606.489,-737.793,-166.504,-84.961,-636.719,0.000
1746583606.493,876.953,122.070,3.906,979.004,0.000
1746583606.497,849.609,114.258,10.742,781.738,0.000
1746583606.501,-685.547,-193.359,-88.867,-758.301,0.000
1746583606.504,-1000.000,-230.957,-101.074,-1000.000,0.000
1746583606.508,122.070,86.914,-9.766,206.055,0.000
1746583606.512,-795.410,222.656,11.719,-801.758,0.000
1746583606.516,-2.930,-60.547,-72.266,-57.617,0.000
1746583606.520,-1000.000,-243.164,-121.094,-1000.000,0.000
1746583606.524,-239.258,2.930,-47.363,-216.309,0.000
1746583606.528,-815.918,214.844,30.273,-810.547,0.000
1746583606.532,239.258,-14.648,-45.898,234.375,0.000
1746583606.536,-1000.000,-277.344,-139.648,-1000.000,0.000
1746583606.540,-393.066,-130.371,-68.359,-324.707,0.000
1746583606.544,-858.887,199.219,62.500,-831.055,0.000
1746583606.547,504.883,93.750,17.090,461.426,0.000
1746583606.551,-1000.000,-238.281,-119.141,-1000.000,0.000
1746583606.555,-893.555,-214.844,-108.887,-799.805,0.000
1746583606.559,636.719,91.797,11.719,770.996,0.000
1746583606.563,-937.988,174.316,37.109,987.305,0.000
1746583606.567,-389.648,-121.582,-79.102,-497.070,0.000
1746583606.571,-1000.000,-245.117,-116.211,-1000.000,0.000
1746583606.575,11.230,31.250,-8.301,80.078,0.000
1746583606.579,-787.598,175.293,44.434,-788.086,0.000
1746583606.583,104.980,-93.750,-55.664,53.223,0.000
1746583606.586,-1000.000,-275.391,-133.301,-1000.000,0.000
1746583606.590,-250.488,-64.941,-59.570,-245.117,0.000
1746583606.594,-814.453,175.781,35.645,-813.965,0.000
1746583606.598,241.699,4.395,-13.672,241.211,0.000
1746583606.602,-1000.000,-252.930,-95.215,-1000.000,0.000
1746583606.606,-524.902,-117.188,-48.828,-452.148,0.000
1746583606.610,-927.734,183.105,48.828,-889.648,0.000
1746583606.614,612.305,111.328,22.949,574.219,0.000
1746583606.618,-961.914,-175.781,-103.027,-1000.000,0.000
1746583606.622,-1000.000,-182.617,-126.465,-949.219,0.000
1746583606.626,402.344,74.707,-16.113,542.969,0.000
1746583606.629,-833.496,156.738,42.969,-876.465,0.000
1746583606.633,-184.082,-126.953,-40.527,-271.973,0.000
1746583606.637,-1000.000,-274.414,-78.125,-1000.000,0.000
1746583606.641,-138.672,-27.344,18.066,-57.617,0.000
1746583606.645,-798.340,146.973,85.938,-786.621,0.000
1746583606.649,222.168,-111.816,13.672,193.848,0.000
1746583606.653,-1000.000,-347.656,-54.199,-1000.000,0.000
1746583606.657,-267.090,-156.250,10.742,-263.672,0.000
1746583606.661,-808.594,125.488,112.305,-807.617,0.000
1746583606.665,318.848,-12.695,68.359,291.016,0.000
1746583606.669,-1000.000,-311.523,-53.711,-1000.000,0.000
1746583606.672,-640.625,-265.137,-34.180,-576.660,0.000
1746583606.676,988.770,27.832,77.148,-968.750,0.000
1746583606.680,746.094,27.344,75.195,700.684,0.000
1746583606.684,-799.805,-255.859,-26.367,-863.281,0.000
1746583606.688,-1000.000,-284.668,-49.316,-1000.000,0.000
1746583606.692,182.129,-8.301,50.293,323.730,0.000
1746583606.696,-805.664,104.980,106.934,-820.312,0.000
1746583606.700,-76.172,-171.875,10.254,-141.113,0.000
1746583606.704,-1000.000,-305.176,-73.242,-1000.000,0.000
1746583606.708,-232.422,-40.039,4.395,-179.688,0.000
1746583606.712,-819.336,182.129,80.078,-806.641,0.000
1746583606.715,238.281,-36.621,0.488,229.980,0.000
1746583606.719,-1000.000,-314.453,-92.773,-1000.000,0.000
1746583606.723,-353.516,-174.805,-27.344,-303.223,0.000
1746583606.727,-839.844,129.883,97.656,-820.801,0.000
1746583606.731,430.176,50.293,60.547,388.184,0.000
1746583606.735,-1000.000,-237.305,-59.570,-1000.000,0.000
1746583606.739,-770.508,-184.570,-54.199,-689.453,0.000
1746583606.743,818.848,115.723,41.992,911.133,0.000
1746583606.747,931.641,107.910,43.945,869.141,0.000
1746583606.751,-568.359,-206.543,-58.105,-652.344,0.000
1746583606.754,-1000.000,-288.574,-70.312,-1000.000,0.000
1746583606.758,57.129,2.441,33.691,153.320,0.000
1746583606.762,-791.992,196.289,59.570,-791.504,0.000
1746583606.766,61.523,-77.637,-55.176,7.324,0.000
1746583606.770,-1000.000,-289.062,-104.980,-1000.000,0.000
1746583606.774,-245.605,-48.828,-7.812,-240.723,0.000
1746583606.778,-815.430,207.520,62.988,-814.453,0.000
1746583606.782,241.211,25.879,13.184,239.746,0.000
1746583606.786,-1000.000,-270.508,-75.684,-1000.000,0.000
1746583606.790,-474.121,-145.996,-78.125,-403.320,0.000
1746583606.794,-896.973,157.715,30.273,-863.281,0.000
1746583606.797,543.945,78.125,32.715,496.582,0.000
1746583606.801,-1000.000,-214.355,-75.195,-1000.000,0.000
1746583606.805,-904.297,-177.246,-63.965,-824.707,0.000
1746583606.809,615.234,114.258,41.504,728.516,0.000
1746583606.813,-914.062,143.066,45.898,-975.586,0.000
1746583606.817,-333.496,-161.133,-61.523,-429.688,0.000
1746583606.821,-1000.000,-259.277,-88.867,-1000.000,0.000
1746583606.825,-74.707,15.625,2.441,13.184,0.000
1746583606.829,-792.969,172.852,54.688,-784.668,0.000
1746583606.833,199.707,-53.223,-30.273,148.926,0.000
1746583606.837,-1000.000,-228.027,-90.820,-1000.000,0.000
1746583606.840,-263.184,-44.434,-26.855,-256.348,0.000
1746583606.844,-808.105,190.430,32.715,-808.594,0.000
1746583606.848,270.996,23.438,-20.996,243.652,0.000
1746583606.852,-1000.000,-244.629,-105.957,-1000.000,0.000
1746583606.856,-542.480,-134.766,-75.684,-479.980,0.000
1746583606.860,-949.219,151.367,31.250,-912.109,0.000
1746583606.864,688.965,95.215,36.133,630.371,0.000
1746583606.868,-869.141,-209.473,-57.617,-947.754,0.000
1746583606.872,-1000.000,-223.633,-72.754,-993.164,0.000
1746583606.876,324.707,64.941,14.648,483.398,0.000
1746583606.880,-823.242,153.320,65.430,-852.539,0.000
1746583606.883,-149.902,-146.973,-22.461,-213.379,0.000
1746583606.887,-1000.000,-299.805,-87.891,-1000.000,0.000
1746583606.891,-196.289,-28.809,-9.277,-119.141,0.000
1746583606.895,-812.988,197.266,52.246,-795.410,0.000
1746583606.899,231.934,-43.945,-36.621,211.914,0.000
1746583606.903,-1000.000,-307.129,-105.957,-1000.000,0.000
1746583606.907,-305.176,-124.023,-26.855,-264.648,0.000
1746583606.911,-821.777,173.828,53.223,-808.105,0.000
1746583606.915,336.426,38.574,0.000,300.781,0.000
1746583606.919,-1000.000,-255.859,-90.332,-1000.000,0.000
1746583606.922,-727.539,-165.039,-55.176,-621.582,0.000
1746583606.926,883.789,151.367,66.406,994.141,0.000
1746583606.930,820.801,134.766,50.293,748.535,0.000
1746583606.934,-728.027,-180.664,-79.590,-808.594,0.000
1746583606.938,-1000.000,-223.145,-82.031,-1000.000,0.000
1746583606.942,144.531,36.133,31.250,250.000,0.000
1746583606.946,-797.852,162.598,53.711,-805.176,0.000
1746583606.950,-26.855,-63.477,-59.082,-72.754,0.000
1746583606.954,-1000.000,-223.633,-120.117,-1000.000,0.000
1746583606.958,-236.816,-15.137,-48.340,-220.215,0.000
1746583606.962,-818.359,190.430,26.367,-812.988,0.000
1746583606.965,240.723,-25.879,-33.203,235.352,0.000
1746583606.969,-1000.000,-266.602,-112.305,-1000.000,0.000
1746583606.973,-412.598,-112.305,-47.363,-329.102,0.000
1746583606.977,-864.746,162.109,69.824,-830.566,0.000
1746583606.981,473.145,56.152,25.391,423.340,0.000
1746583606.985,-1000.000,-231.445,-99.609,-1000.000,0.000
1746583606.989,-882.812,-185.059,-91.797,-785.156,0.000
1746583606.993,664.551,137.207,20.508,794.434,0.000
1746583606.997,-991.699,182.617,37.109,945.312,0.000
1746583607.001,-483.887,-139.648,-81.543,-563.965,0.000
1746583607.005,-1000.000,-240.723,-107.422,-1000.000,0.000
1746583607.008,28.809,21.484,14.160,107.422,0.000
1746583607.012,-784.668,182.129,67.871,-784.180,0.000
1746583607.016,138.184,-38.574,-33.691,69.824,0.000
1746583607.020,-1000.000,-230.957,-118.652,-1000.000,0.000
1746583607.024,-255.371,-33.203,-59.570,-247.559,0.000
1746583607.028,-811.035,214.355,24.414,-811.523,0.000
1746583607.032,240.723,26.855,-31.250,239.746,0.000
1746583607.036,-1000.000,-262.207,-111.816,-1000.000,0.000
1746583607.040,-507.812,-138.184,-61.523,-421.875,0.000
1746583607.044,-918.457,172.852,42.969,-875.488,0.000
1746583607.047,600.098,117.188,25.879,555.664,0.000
1746583607.051,-979.492,-194.824,-86.426,-1000.000,0.000
1746583607.055,-998.535,-208.496,-84.961,-907.715,0.000
1746583607.059,478.027,92.285,28.320,617.188,0.000
1746583607.063,-869.629,166.016,46.875,-915.527,0.000
1746583607.067,-269.043,-130.371,-70.801,-340.332,0.000
1746583607.071,-1000.000,-245.605,-129.395,-1000.000,0.000
1746583607.075,-112.793,12.695,-31.250,-37.598,0.000
1746583607.079,-797.852,189.453,45.898,-787.598,0.000
1746583607.083,212.891,-50.781,-28.809,179.199,0.000
1746583607.087,-1000.000,-250.488,-101.562,-1000.000,0.000
1746583607.090,-265.137,-59.570,-38.574,-260.742,0.000
1746583607.094,-808.594,202.148,47.852,-807.617,0.000
1746583607.098,294.434,62.988,-17.090,268.066,0.000
1746583607.102,-1000.000,-228.516,-125.488,-1000.000,0.000
1746583607.106,-602.539,-146.973,-89.844,-526.855,0.000
1746583607.110,-999.023,166.504,28.809,-945.801,0.000
1746583607.114,764.160,137.695,29.297,700.195,0.000
1746583607.118,-786.621,-168.945,-88.867,-866.211,0.000
1746583607.122,-1000.000,-201.660,-98.633,-1000.000,0.000
1746583607.126,261.230,99.121,13.184,387.695,0.000
1746583607.130,-812.012,207.031,44.434,-833.008,0.000
1746583607.133,-108.398,-93.262,-58.594,-168.945,0.000
1746583607.137,-1000.000,-255.859,-119.629,-1000.000,0.000
1746583607.141,-229.980,-14.160,-31.250,-178.711,0.000
1746583607.145,-819.336,187.500,50.293,-807.617,0.000
1746583607.149,237.305,-39.062,-29.785,228.516,0.000
1746583607.153,-1000.000,-258.789,-135.742,-1000.000,0.000
1746583607.157,-329.590,-71.777,-44.922,-279.785,0.000
1746583607.161,-831.055,186.035,65.430,-812.500,0.000
1746583607.165,408.203,59.570,-9.277,363.770,0.000
1746583607.169,-1000.000,-214.844,-112.305,-1000.000,0.000
1746583607.172,-762.695,-158.691,-95.215,-680.664,0.000
1746583607.176,818.359,127.930,12.695,916.504,0.000
1746583607.180,943.848,152.344,36.621,865.234,0.000
1746583607.184,-559.082,-163.574,-79.590,-663.574,0.000
1746583607.188,-1000.000,-229.004,-124.023,-1000.000,0.000
1746583607.192,103.027,76.660,0.000,192.871,0.000
1746583607.196,-793.457,193.359,56.641,-799.316,0.000
1746583607.200,10.742,-90.332,-54.199,-45.410,0.000
1746583607.204,-1000.000,-267.578,-111.328,-1000.000,0.000
1746583607.208,-240.723,-53.223,-31.250,-235.352,0.000
1746583607.212,-817.383,151.367,52.734,-816.895,0.000
1746583607.215,241.211,-16.113,-13.672,239.746,0.000
1746583607.219,-1000.000,-245.117,-102.539,-1000.000,0.000
1746583607.223,-447.266,-133.301,-57.617,-379.395,0.000
1746583607.227,-884.277,185.059,20.020,-853.516,0.000
1746583607.231,546.387,121.582,-12.207,495.605,0.000
1746583607.235,-1000.000,-205.566,-108.398,-1000.000,0.000
1746583607.239,-938.965,-214.844,-91.309,-841.309,0.000
1746583607.243,565.430,74.707,26.855,706.543,0.000
1746583607.247,-898.926,163.086,42.480,-962.891,0.000
1746583607.251,-324.707,-106.934,-64.453,-422.363,0.000
1746583607.255,-1000.000,-218.262,-96.680,-1000.000,0.000
1746583607.258,-35.645,28.320,-4.395,51.270,0.000
1746583607.262,-787.598,162.598,44.434,-782.715,0.000
1746583607.266,171.387,-71.289,-47.852,112.793,0.000
1746583607.270,-1000.000,-234.375,-120.117,-1000.000,0.000
1746583607.274,-258.301,-24.414,-62.988,-252.441,0.000
1746583607.278,-810.547,231.934,17.090,-811.035,0.000
1746583607.282,240.234,63.477,-38.086,240.723,0.000
1746583607.286,-1000.000,-211.426,-140.137,-1000.000,0.000
1746583607.290,-546.387,-85.938,-103.027,-485.352,0.000
1746583607.294,-936.035,232.910,9.766,-904.297,0.000
1746583607.297,599.121,160.645,-31.250,566.406,0.000
1746583607.301,-955.078,-153.320,-156.250,-999.512,0.000
1746583607.305,-1000.000,-142.578,-156.250,-982.910,0.000
1746583607.309,328.125,152.832,-57.617,497.070,0.000
1746583607.313,-838.867,238.770,-38.086,-883.789,0.000
1746583607.317,-212.402,-64.941,-141.113,-300.781,0.000
1746583607.321,-1000.000,-190.918,-167.969,-1000.000,0.000
1746583607.325,-145.508,75.195,-74.219,-64.941,0.000
1746583607.329,-802.734,241.699,-4.395,-790.039,0.000
1746583607.333,224.121,-20.996,-79.102,193.359,0.000
1746583607.337,-1000.000,-257.812,-160.645,-1000.000,0.000
1746583607.340,-277.832,-62.988,-98.633,-263.184,0.000
1746583607.344,-812.500,232.910,7.324,-808.594,0.000
1746583607.348,319.824,97.656,-35.156,293.945,0.000
1746583607.352,-1000.000,-199.219,-142.578,-1000.000,0.000
1746583607.356,-693.359,-127.930,-118.652,-600.098,0.000
1746583607.360,905.762,170.898,-15.625,998.047,0.000
1746583607.364,851.074,165.527,-5.859,775.391,0.000
1746583607.368,-699.219,-144.043,-105.469,-791.504,0.000
1746583607.372,-1000.000,-194.336,-120.605,-1000.000,0.000
1746583607.376,223.145,102.539,-11.230,335.938,0.000
1746583607.380,-798.340,198.730,18.555,-813.965,0.000
1746583607.383,-51.270,-91.309,-86.914,-99.609,0.000
1746583607.387,-1000.000,-237.793,-141.113,-1000.000,0.000
1746583607.391,-235.352,3.906,-58.594,-215.820,0.000
1746583607.395,-818.359,218.262,19.043,-812.988,0.000
1746583607.399,239.746,3.418,-40.527,234.863,0.000
1746583607.403,-1000.000,-248.535,-122.559,-1000.000,0.000
1746583607.407,-383.789,-86.914,-73.242,-318.848,0.000
1746583607.411,-854.980,197.266,40.527,-828.125,0.000
1746583607.415,495.605,102.051,7.812,442.871,0.000
1746583607.419,-1000.000,-164.062,-108.887,-1000.000,0.000
1746583607.423,-826.660,-126.953,-97.168,-724.121,0.000
1746583607.426,749.512,145.996,27.832,874.023,0.000
1746583607.430,985.352,156.738,40.039,916.016,0.000
1746583607.434,-500.000,-140.625,-94.727,-587.402,0.000
1746583607.438,-1000.000,-216.797,-130.371,-1000.000,0.000
1746583607.442,43.457,67.383,-21.484,128.418,0.000
1746583607.446,-788.574,225.586,39.062,-786.621,0.000
1746583607.450,84.961,-40.527,-54.199,39.551,0.000
1746583607.454,-1000.000,-250.000,-129.395,-1000.000,0.000
1746583607.458,-248.047,-33.203,-42.969,-244.141,0.000
1746583607.462,-813.965,242.188,54.688,-812.500,0.000
1746583607.465,241.211,41.992,-7.324,239.746,0.000
1746583607.469,-1000.000,-264.160,-115.234,-1000.000,0.000
1746583607.473,-481.934,-128.418,-78.125,-410.645,0.000
1746583607.477,-905.273,190.430,31.738,-870.117,0.000
1746583607.481,593.750,143.066,12.207,547.852,0.000
1746583607.485,-982.910,-165.527,-92.285,-1000.000,0.000
1746583607.489,-986.816,-189.941,-85.449,-882.324,0.000
1746583607.493,494.141,105.469,22.949,649.414,0.000
1746583607.497,-866.211,180.664,37.598,-916.992,0.000
1746583607.501,-268.555,-105.957,-62.988,-347.168,0.000
1746583607.505,-1000.000,-233.887,-114.258,-1000.000,0.000
1746583607.508,-71.777,31.738,-18.555,16.113,0.000
1746583607.512,-789.062,208.008,61.035,-778.809,0.000
1746583607.516,208.496,-49.316,-35.156,172.852,0.000
1746583607.520,-1000.000,-264.648,-140.137,-1000.000,0.000
1746583607.524,-265.625,-60.059,-75.684,-261.230,0.000
1746583607.528,-808.594,208.008,31.738,-807.617,0.000
1746583607.532,292.969,62.500,-11.719,264.648,0.000
1746583607.536,-1000.000,-233.398,-106.445,-1000.000,0.000
1746583607.540,-601.562,-148.926,-76.660,-521.484,0.000
1746583607.544,-989.258,154.297,38.086,-937.500,0.000
1746583607.548,732.422,96.191,43.457,674.316,0.000
1746583607.551,-828.125,-205.566,-66.895,-898.438,0.000
1746583607.555,-1000.000,-208.496,-98.633,-1000.000,0.000
1746583607.559,275.879,77.637,-2.930,412.109,0.000
1746583607.563,-808.105,179.199,50.293,-829.590,0.000
1746583607.567,-88.867,-112.793,-45.410,-160.156,0.000
1746583607.571,-1000.000,-294.922,-96.680,-1000.000,0.000
1746583607.575,-214.355,-40.039,-5.371,-143.066,0.000
1746583607.579,-812.988,178.223,72.266,-797.363,0.000
1746583607.583,234.375,-57.617,2.441,223.145,0.000
1746583607.587,-1000.000,-299.805,-100.098,-1000.000,0.000
1746583607.591,-325.684,-123.047,-52.246,-272.461,0.000
1746583607.594,-829.590,163.574,65.918,-809.570,0.000
1746583607.598,397.949,36.133,36.133,347.168,0.000
1746583607.602,-1000.000,-239.258,-81.543,-1000.000,0.000
1746583607.606,-738.770,-169.434,-71.289,-638.672,0.000
1746583607.610,868.652,113.770,32.227,970.215,0.000
1746583607.614,870.117,123.535,27.832,802.734,0.000
1746583607.618,-657.227,-175.293,-89.355,-731.445,0.000
1746583607.622,-1000.000,-248.047,-113.281,-1000.000,0.000
1746583607.626,111.816,43.945,-4.883,200.195,0.000
1746583607.630,-794.922,161.621,41.504,-801.758,0.000
1746583607.633,6.836,-100.586,-48.340,-53.711,0.000
1746583607.637,-1000.000,-249.512,-104.980,-1000.000,0.000
1746583607.641,-240.234,-19.043,-18.555,-229.492,0.000
1746583607.645,-816.895,200.195,48.340,-814.941,0.000
1746583607.649,240.723,16.113,-28.809,237.305,0.000
1746583607.653,-1000.000,-265.625,-113.281,-1000.000,0.000
1746583607.657,-427.246,-153.809,-67.383,-346.680,0.000
1746583607.661,-873.535,164.551,41.016,-839.355,0.000
1746583607.665,512.207,70.801,13.184,466.309,0.000
1746583607.669,-1000.000,-241.699,-114.258,-1000.000,0.000
1746583607.673,-896.973,-187.500,-106.445,-809.082,0.000
1746583607.676,651.367,139.160,34.668,767.578,0.000
1746583607.680,-978.027,162.109,67.871,970.703,0.000
1746583607.684,-455.078,-169.434,-68.359,-521.973,0.000
1746583607.688,-1000.000,-260.254,-116.211,-1000.000,0.000
1746583607.692,-16.602,34.668,-20.508,63.965,0.000
1746583607.696,-789.551,199.219,24.414,-785.156,0.000
1746583607.700,161.621,-45.898,-47.852,101.074,0.000
1746583607.704,-1000.000,-241.211,-103.516,-1000.000,0.000
1746583607.708,-257.324,-58.105,-46.875,-250.977,0.000
1746583607.712,-810.059,190.430,33.203,-810.547,0.000
1746583607.716,240.723,19.043,-7.324,240.234,0.000
1746583607.719,-1000.000,-232.422,-107.422,-1000.000,0.000
1746583607.723,-523.926,-112.305,-81.055,-452.637,0.000
1746583607.727,-927.246,167.969,39.551,-890.137,0.000
1746583607.731,611.816,105.957,31.250,573.242,0.000
1746583607.735,-969.727,-221.680,-89.844,-1000.000,0.000
1746583607.739,-1000.000,-227.539,-101.562,-941.406,0.000
1746583607.743,436.035,110.840,6.348,556.641,0.000
1746583607.747,-840.332,199.219,55.176,-882.324,0.000
1746583607.751,-190.430,-117.676,-46.387,-279.297,0.000
1746583607.755,-1000.000,-246.094,-124.512,-1000.000,0.000
1746583607.758,-168.945,20.508,-33.203,-70.801,0.000
1746583607.762,-806.641,204.590,36.621,-789.551,0.000
1746583607.766,226.074,-48.828,-41.016,191.895,0.000
1746583607.770,-1000.000,-262.207,-104.004,-1000.000,0.000
1746583607.774,-266.113,-63.477,-46.875,-263.184,0.000
1746583607.778,-808.105,190.918,36.133,-808.105,0.000
1746583607.782,319.824,53.711,-6.348,292.480,0.000
1746583607.786,-1000.000,-250.488,-97.168,-1000.000,0.000
1746583607.790,-630.371,-165.527,-76.172,-566.895,0.000
1746583607.794,984.863,181.641,30.273,-966.309,0.000
1746583607.798,778.320,143.555,21.973,714.355,0.000
1746583607.801,-758.301,-187.012,-92.285,-845.215,0.000
1746583607.805,-1000.000,-229.980,-105.957,-1000.000,0.000
1746583607.809,183.594,67.871,9.277,312.988,0.000
1746583607.813,-800.781,197.754,47.852,-814.941,0.000
1746583607.817,-52.246,-81.543,-62.500,-110.352,0.000
1746583607.821,-1000.000,-262.207,-118.164,-1000.000,0.000
1746583607.825,-216.309,-36.621,-27.832,-184.082,0.000
1746583607.829,-872.070,197.266,47.852,-865.234,0.000
1746583607.833,148.926,-6.348,-17.090,142.578,0.000
1746583607.837,-1000.000,-243.652,-84.961,-1000.000,0.000
1746583607.841,-330.566,-91.309,-43.457,-284.180,0.000
1746583607.844,-834.473,160.156,46.875,-816.895,0.000
1746583607.848,434.570,27.832,8.301,392.578,0.000
1746583607.852,-1000.000,-262.695,-100.586,-1000.000,0.000
1746583607.856,-798.340,-189.941,-77.148,-708.984,0.000
1746583607.860,777.832,135.254,37.109,886.719,0.000
1746583607.864,964.355,168.945,41.992,893.066,0.000
1746583607.868,-525.879,-142.090,-54.199,-619.141,0.000
1746583607.872,-1000.000,-241.211,-79.102,-1000.000,0.000
1746583607.876,40.039,49.805,2.441,128.906,0.000
1746583607.880,-791.992,215.332,41.504,-790.039,0.000
1746583607.883,72.266,-28.809,-57.617,19.043,0.000
1746583607.887,-1000.000,-193.848,-122.070,-1000.000,0.000
1746583607.891,-246.582,16.113,-63.477,-236.816,0.000
1746583607.895,-814.941,236.328,5.859,-812.988,0.000
1746583607.899,241.211,31.250,-56.152,238.770,0.000
1746583607.903,-1000.000,-235.352,-151.855,-1000.000,0.000
1746583607.907,-479.492,-78.613,-117.188,-408.691,0.000
1746583607.911,-902.344,243.164,-10.254,-867.676,0.000
1746583607.915,577.148,174.805,-15.137,527.344,0.000
1746583607.919,-1000.000,-131.348,-131.836,-1000.000,0.000
1746583607.923,-965.332,-127.441,-149.414,-859.375,0.000
1746583607.926,531.250,156.250,-40.039,686.035,0.000
1746583607.930,-891.602,211.426,-23.438,-948.730,0.000
1746583607.934,-304.688,-90.332,-130.371,-388.672,0.000
1746583607.938,-1000.000,-204.590,-162.598,-1000.000,0.000
1746583607.942,-89.844,81.543,-65.430,-8.789,0.000
1746583607.946,-796.387,255.371,10.254,-788.574,0.000
1746583607.950,188.477,-14.648,-69.824,136.719,0.000
1746583607.954,-1000.000,-229.004,-163.086,-1000.000,0.000
1746583607.958,-260.742,-30.273,-95.703,-254.395,0.000
1746583607.962,-810.059,223.633,18.066,-810.547,0.000
1746583607.966,269.043,83.984,-19.043,245.605,0.000
1746583607.969,-1000.000,-170.898,-106.445,-1000.000,0.000
1746583607.973,-575.195,-74.707,-87.891,-502.930,0.000
1746583607.977,-974.121,203.125,9.277,-928.223,0.000
1746583607.981,714.844,137.695,-7.324,657.227,0.000
1746583607.985,-843.262,-171.387,-130.371,-917.480,0.000
1746583607.989,-1000.000,-179.199,-135.742,-1000.000,0.000
1746583607.993,288.574,110.352,-21.484,436.523,0.000
1746583607.997,-795.410,207.520,25.879,-818.848,0.000
1746583608.001,-196.777,-81.055,-73.242,-252.441,0.000
1746583608.005,-1000.000,-192.383,-110.352,-1000.000,0.000
1746583608.009,97.168,73.730,1.953,177.246,0.000
1746583608.012,-829.102,213.867,50.781,-811.035,0.000
1746583608.016,223.633,-6.348,-48.340,208.008,0.000
1746583608.020,-1000.000,-241.211,-130.859,-1000.000,0.000
1746583608.024,-305.664,-100.586,-66.895,-268.066,0.000
1746583608.028,-822.266,177.246,27.832,-808.594,0.000
1746583608.032,395.508,61.523,-9.277,345.703,0.000
1746583608.036,-1000.000,-238.770,-113.770,-1000.000,0.000
1746583608.040,-752.930,-176.758,-102.539,-651.855,0.000
1746583608.044,856.445,141.113,0.977,961.426,0.000
1746583608.048,867.188,137.207,11.719,798.828,0.000
1746583608.051,-668.945,-180.664,-84.473,-746.582,0.000
1746583608.055,-1000.000,-223.633,-104.980,-1000.000,0.000
1746583608.059,134.277,81.543,0.977,226.074,0.000
1746583608.063,-797.852,210.938,39.062,-803.711,0.000
1746583608.067,-25.391,-93.750,-82.031,-67.871,0.000
1746583608.071,-1000.000,-257.324,-132.324,-1000.000,0.000
1746583608.075,-236.816,-2.930,-18.555,-217.773,0.000
1746583608.079,-818.848,201.660,48.828,-812.012,0.000
1746583608.083,240.723,-18.555,-38.086,235.352,0.000
1746583608.087,-1000.000,-279.785,-131.836,-1000.000,0.000
1746583608.091,-416.504,-120.117,-83.984,-333.496,0.000
1746583608.094,-867.676,203.125,27.832,-833.496,0.000
1746583608.098,500.000,110.840,11.719,450.684,0.000
1746583608.102,-1000.000,-208.008,-92.285,-1000.000,0.000
1746583608.106,-894.531,-213.379,-78.125,-800.781,0.000
1746583608.110,647.461,101.074,20.508,772.949,0.000
1746583608.114,-968.750,191.895,17.578,971.191,0.000
1746583608.118,-441.406,-106.934,-93.262,-520.996,0.000
1746583608.122,-1000.000,-218.262,-117.676,-1000.000,0.000
1746583608.126,-5.371,43.945,-18.555,76.172,0.000
1746583608.130,-792.969,204.102,35.645,-789.062,0.000
1746583608.134,104.492,-62.988,-33.203,54.199,0.000
1746583608.137,-1000.000,-266.113,-101.562,-1000.000,0.000
1746583608.141,-249.512,-46.387,-37.109,-244.629,0.000
1746583608.145,-813.965,225.586,47.852,-812.988,0.000
1746583608.149,241.211,33.691,-4.395,240.234,0.000
1746583608.153,-1000.000,-261.719,-109.863,-1000.000,0.000
1746583608.157,-503.418,-120.117,-80.078,-424.805,0.000
1746583608.161,-916.016,189.453,29.785,-877.441,0.000
1746583608.165,607.910,139.648,15.137,568.848,0.000
1746583608.169,-957.520,-156.250,-79.590,-996.582,0.000
1746583608.173,-1000.000,-188.477,-104.492,-957.520,0.000
1746583608.176,413.086,84.961,-17.578,551.270,0.000
1746583608.180,-865.723,162.109,32.715,-909.180,0.000
1746583608.184,-264.160,-136.230,-57.617,-337.402,0.000
1746583608.188,-1000.000,-246.582,-103.027,-1000.000,0.000
1746583608.192,-153.809,12.207,-1.465,-60.547,0.000
1746583608.196,-807.617,173.828,68.848,-791.504,0.000
1746583608.200,218.750,-68.359,-40.039,183.105,0.000
1746583608.204,-1000.000,-245.605,-139.648,-1000.000,0.000
1746583608.208,-264.160,-59.082,-82.520,-260.742,0.000
1746583608.212,-809.082,205.078,22.461,-809.082,0.000
1746583608.216,298.340,72.266,-9.766,270.996,0.000
1746583608.219,-1000.000,-221.680,-107.910,-1000.000,0.000
1746583608.223,-634.766,-128.906,-70.312,-570.312,0.000
1746583608.227,986.328,162.109,49.316,-968.750,0.000
1746583608.231,753.418,113.770,30.273,700.684,0.000
1746583608.235,-815.918,-181.152,-94.238,-884.766,0.000
1746583608.239,-1000.000,-191.895,-108.398,-1000.000,0.000
1746583608.243,277.832,97.168,1.953,407.715,0.000
1746583608.247,-806.641,186.035,37.109,-824.707,0.000
1746583608.251,-80.566,-104.492,-59.082,-138.672,0.000
1746583608.255,-1000.000,-260.742,-102.539,-1000.000,0.000
1746583608.259,-223.633,-3.418,-22.461,-162.109,0.000
1746583608.262,-816.406,226.074,51.270,-802.246,0.000
1746583608.266,237.305,0.488,-25.391,227.051,0.000
1746583608.270,-1000.000,-277.344,-99.609,-1000.000,0.000
1746583608.274,-353.027,-145.996,-18.555,-301.758,0.000
1746583608.278,-839.355,122.070,65.430,-820.312,0.000
1746583608.282,420.898,22.949,21.484,381.348,0.000
1746583608.286,-1000.000,-248.535,-73.242,-1000.000,0.000
1746583608.290,-768.555,-202.148,-63.965,-688.965,0.000
1746583608.294,814.941,89.844,32.715,909.668,0.000
1746583608.298,940.918,105.957,38.574,872.559,0.000
1746583608.302,-565.918,-198.242,-62.988,-657.227,0.000
1746583608.305,-1000.000,-244.141,-94.238,-1000.000,0.000
1746583608.309,101.562,68.848,5.859,186.035,0.000
1746583608.313,-786.133,201.660,66.406,-790.527,0.000
1746583608.317,59.082,-88.379,-33.203,5.859,0.000
1746583608.321,-1000.000,-280.762,-104.004,-1000.000,0.000
1746583608.325,-246.582,-39.551,-31.250,-234.863,0.000
1746583608.329,-814.453,208.008,51.270,-812.012,0.000
1746583608.333,240.723,-13.184,-4.883,237.793,0.000
1746583608.337,-1000.000,-275.391,-97.656,-1000.000,0.000
1746583608.341,-450.684,-112.305,-46.875,-384.766,0.000
1746583608.344,-884.277,168.945,64.453,-855.469,0.000
1746583608.348,534.668,72.266,29.785,492.188,0.000
1746583608.352,-1000.000,-215.332,-88.379,-1000.000,0.000
1746583608.356,-952.637,-198.730,-98.633,-845.215,0.000
1746583608.360,541.016,103.516,12.695,698.730,0.000
1746583608.364,-896.973,165.527,43.457,-959.473,0.000
1746583608.368,-319.336,-154.297,-83.496,-413.574,0.000
1746583608.372,-1000.000,-277.344,-128.418,-1000.000,0.000
1746583608.376,-67.383,15.625,-4.395,28.320,0.000
1746583608.380,-792.969,196.777,68.848,-784.180,0.000
1746583608.384,179.199,-64.453,-26.367,124.512,0.000
1746583608.387,-1000.000,-259.277,-105.469,-1000.000,0.000
1746583608.391,-260.254,-42.480,-40.527,-253.418,0.000
1746583608.395,-810.547,205.078,50.781,-811.035,0.000
1746583608.399,268.555,41.016,-6.348,243.652,0.000
1746583608.403,-1000.000,-265.137,-110.840,-1000.000,0.000
1746583608.407,-581.055,-187.500,-72.754,-503.418,0.000
1746583608.411,-958.496,130.371,36.133,-915.527,0.000
1746583608.415,637.207,120.117,20.996,592.773,0.000
1746583608.419,-940.918,-179.199,-83.984,-991.699,0.000
1746583608.423,-1000.000,-188.965,-71.777,-972.656,0.000
1746583608.427,361.328,106.445,30.273,505.859,0.000
1746583608.430,-830.566,167.969,31.738,-866.211,0.000
1746583608.434,-171.387,-121.582,-85.449,-247.070,0.000
1746583608.438,-1000.000,-243.652,-126.465,-1000.000,0.000
1746583608.442,-181.152,5.371,-17.090,-97.168,0.000
1746583608.446,-809.570,209.961,57.129,-792.480,0.000
1746583608.450,229.004,-8.301,-35.645,208.984,0.000
1746583608.454,-1000.000,-262.207,-126.953,-1000.000,0.000
1746583608.458,-286.133,-109.863,-64.453,-264.648,0.000
1746583608.462,-815.430,176.270,31.250,-808.594,0.000
1746583608.466,317.871,53.223,-14.160,292.480,0.000
1746583608.469,-1000.000,-228.027,-127.441,-1000.000,0.000
1746583608.473,-734.863,-169.922,-95.703,-639.160,0.000
1746583608.477,866.699,113.770,33.691,974.121,0.000
1746583608.481,839.844,124.023,29.297,760.254,0.000
1746583608.485,-708.984,-154.297,-78.125,-800.293,0.000
1746583608.489,-1000.000,-208.496,-89.844,-1000.000,0.000
1746583608.493,154.297,80.078,2.441,258.789,0.000
1746583608.497,-802.246,193.359,39.551,-811.523,0.000
1746583608.501,-52.246,-99.609,-63.477,-104.980,0.000
1746583608.505,-1000.000,-258.789,-118.164,-1000.000,0.000
1746583608.509,-234.375,-30.762,-33.691,-215.820,0.000
1746583608.512,-817.871,187.500,26.855,-813.477,0.000
1746583608.516,238.281,-5.859,-40.527,234.863,0.000
1746583608.520,-1000.000,-236.328,-109.863,-1000.000,0.000
1746583608.524,-359.863,-84.473,-36.621,-312.500,0.000
1746583608.528,-844.238,197.266,62.012,-825.684,0.000
1746583608.532,479.492,94.238,0.977,431.152,0.000
1746583608.536,-1000.000,-225.098,-114.746,-1000.000,0.000
1746583608.540,-837.402,-181.641,-91.309,-729.980,0.000
1746583608.544,724.609,136.230,15.625,854.980,0.000
1746583608.548,-991.699,156.738,20.508,947.266,0.000
1746583608.552,-468.750,-164.551,-77.637,-544.922,0.000
1746583608.555,-1000.000,-270.020,-95.215,-1000.000,0.000
1746583608.559,37.598,8.301,-5.859,122.559,0.000
1746583608.563,-788.574,181.641,31.738,-786.133,0.000
1746583608.567,85.449,-75.195,-51.758,41.016,0.000
1746583608.571,-1000.000,-278.320,-114.258,-1000.000,0.000
1746583608.575,-248.535,-44.434,-40.039,-244.141,0.000
1746583608.579,-813.965,228.027,47.363,-812.500,0.000
1746583608.583,241.211,47.852,-1.465,239.746,0.000
1746583608.587,-1000.000,-222.656,-98.633,-1000.000,0.000
1746583608.591,-481.445,-110.840,-60.059,-407.715,0.000
1746583608.595,-906.250,164.062,66.895,-870.605,0.000
1746583608.598,603.027,98.145,52.246,560.059,0.000
1746583608.602,-974.121,-200.684,-85.449,-1000.000,0.000
1746583608.606,-995.605,-206.055,-113.281,-900.391,0.000
1746583608.610,484.375,109.863,1.465,628.418,0.000
1746583608.614,-866.211,188.477,42.969,-912.598,0.000
1746583608.618,-261.719,-103.516,-71.777,-333.008,0.000
1746583608.622,-1000.000,-218.750,-130.859,-1000.000,0.000
1746583608.626,-112.305,40.039,-25.879,-35.645,0.000
1746583608.630,-796.387,225.586,41.504,-786.621,0.000
1746583608.634,219.238,1.953,-48.340,182.617,0.000
1746583608.637,-1000.000,-203.125,-114.258,-1000.000,0.000
1746583608.641,-265.625,-30.273,-56.152,-260.742,0.000
1746583608.645,-807.129,211.914,2.930,-806.641,0.000
1746583608.649,287.109,72.266,-57.129,261.719,0.000
1746583608.653,-1000.000,-199.219,-163.086,-1000.000,0.000
1746583608.657,-562.988,-77.148,-119.141,-503.418,0.000
1746583608.661,-966.309,208.984,-2.441,-928.711,0.000
1746583608.665,722.168,143.555,-13.184,669.922,0.000
1746583608.669,-818.848,-162.598,-120.117,-886.719,0.000
1746583608.673,-1000.000,-209.473,-131.348,-1000.000,0.000
1746583608.677,245.117,77.148,0.000,369.629,0.000
1746583608.680,-809.082,226.562,23.438,-826.172,0.000
1746583608.684,-97.168,-61.035,-101.562,-155.762,0.000
1746583608.688,-1000.000,-241.699,-140.625,-1000.000,0.000
1746583608.692,-230.957,19.531,-38.086,-171.387,0.000
1746583608.696,-817.383,228.516,45.410,-804.199,0.000
1746583608.700,235.352,16.113,-41.992,227.051,0.000
1746583608.704,-1000.000,-223.145,-133.301,-1000.000,0.000
1746583608.708,-301.270,-79.102,-64.941,-267.090,0.000
1746583608.712,-821.289,190.918,37.598,-808.105,0.000
1746583608.716,398.926,73.730,-11.230,353.516,0.000
1746583608.720,-1000.000,-207.031,-130.371,-1000.000,0.000
1746583608.723,-728.027,-146.484,-101.074,-630.859,0.000
1746583608.727,866.699,168.945,17.578,968.262,0.000
1746583608.731,909.180,173.340,20.020,837.402,0.000
1746583608.735,-597.656,-156.250,-71.289,-685.059,0.000
1746583608.739,-1000.000,-250.488,-88.379,-1000.000,0.000
1746583608.743,98.633,36.133,-1.953,190.430,0.000
1746583608.747,-791.016,205.566,42.969,-796.387,0.000
1746583608.751,35.645,-55.176,-48.828,-27.832,0.000
1746583608.755,-1000.000,-254.395,-109.863,-1000.000,0.000
1746583608.759,-243.652,-15.137,-21.973,-229.492,0.000
1746583608.762,-813.965,201.660,50.781,-811.035,0.000
1746583608.766,239.258,-1.465,-15.625,235.840,0.000
1746583608.770,-1000.000,-221.680,-104.004,-1000.000,0.000
1746583608.774,-400.879,-69.824,-64.941,-327.637,0.000
1746583608.778,-860.840,209.961,39.062,-832.031,0.000
1746583608.782,502.441,93.750,17.090,462.891,0.000
1746583608.786,-1000.000,-213.379,-90.332,-1000.000,0.000
1746583608.790,-953.613,-195.312,-94.727,-850.098,0.000
1746583608.794,570.801,105.957,5.371,716.797,0.000
1746583608.798,-967.285,174.805,25.391,981.445,0.000
1746583608.802,-447.266,-147.461,-77.148,-514.160,0.000
1746583608.805,-1000.000,-283.203,-100.098,-1000.000,0.000
1746583608.809,-51.270,6.348,2.441,43.945,0.000
1746583608.813,-795.898,208.008,55.664,-787.598,0.000
1746583608.817,163.574,-18.555,-28.320,101.562,0.000
1746583608.821,-1000.000,-212.891,-97.168,-1000.000,0.000
1746583608.825,-256.348,-12.207,-32.715,-250.488,0.000
1746583608.829,-811.523,219.238,56.152,-812.012,0.000
1746583608.833,240.723,31.738,8.301,240.723,0.000
1746583608.837,-1000.000,-261.230,-114.258,-1000.000,0.000
1746583608.841,-547.363,-159.668,-99.609,-480.469,0.000
1746583608.845,-948.242,166.016,10.254,-905.762,0.000
1746583608.848,652.344,120.605,-3.418,593.262,0.000
1746583608.852,-937.988,-197.754,-103.516,-997.559,0.000
1746583608.856,-1000.000,-218.262,-92.285,-943.848,0.000
1746583608.860,434.570,95.215,26.855,546.387,0.000
1746583608.864,-833.984,196.289,52.734,-865.723,0.000
1746583608.868,-162.598,-84.961,-49.316,-237.305,0.000
1746583608.872,-1000.000,-240.723,-93.262,-1000.000,0.000
1746583608.876,-179.688,-8.301,-12.207,-79.102,0.000
1746583608.880,-807.129,192.871,48.828,-789.062,0.000
1746583608.884,227.051,-47.363,-42.969,194.824,0.000
1746583608.888,-1000.000,-281.738,-129.883,-1000.000,0.000
1746583608.891,-265.625,-72.754,-49.805,-262.695,0.000
1746583608.895,-808.594,198.242,52.734,-808.105,0.000
1746583608.899,313.477,24.902,-2.441,287.109,0.000
1746583608.903,-1000.000,-275.879,-97.656,-1000.000,0.000
1746583608.907,-638.672,-171.387,-87.402,-578.613,0.000
1746583608.911,976.562,167.480,4.395,-977.051,0.000
1746583608.915,784.180,144.043,8.789,727.051,0.000
1746583608.919,-750.977,-168.945,-87.891,-834.473,0.000
1746583608.923,-1000.000,-226.562,-113.281,-1000.000,0.000
1746583608.927,170.410,58.594,-21.484,307.129,0.000
1746583608.930,-802.246,202.148,24.902,-813.477,0.000
1746583608.934,-57.129,-80.078,-63.477,-115.234,0.000
1746583608.938,-1000.000,-253.906,-116.211,-1000.000,0.000
1746583608.942,-233.887,-4.395,-20.996,-186.523,0.000
1746583608.946,-817.871,231.445,63.477,-806.152,0.000
1746583608.950,237.793,14.160,-20.020,229.980,0.000
1746583608.954,-1000.000,-242.676,-104.492,-1000.000,0.000
1746583608.958,-350.586,-101.074,-47.363,-302.246,0.000
1746583608.962,-838.867,198.242,33.691,-820.312,0.000
1746583608.966,437.500,96.680,-12.207,393.066,0.000
1746583608.970,-1000.000,-238.281,-106.934,-1000.000,0.000
1746583608.973,-807.617,-196.777,-78.613,-709.473,0.000
1746583608.977,759.277,124.023,28.809,878.906,0.000
1746583608.981,980.469,155.273,27.344,909.180,0.000
1746583608.985,-507.812,-148.438,-85.938,-601.562,0.000
1746583608.989,-1000.000,-223.145,-102.051,-1000.000,0.000
1746583608.993,53.223,32.227,3.418,150.391,0.000
1746583608.997,-790.527,170.410,41.504,-790.039,0.000
1746583609.001,62.988,-66.406,-48.828,10.254,0.000
1746583609.005,-1000.000,-238.281,-125.488,-1000.000,0.000
1746583609.009,-245.605,-13.672,-47.852,-241.211,0.000
1746583609.013,-815.430,205.566,48.340,-814.453,0.000
1746583609.016,241.211,5.371,-22.461,239.746,0.000
1746583609.020,-1000.000,-250.977,-122.559,-1000.000,0.000
1746583609.024,-474.121,-123.047,-71.289,-403.320,0.000
1746583609.028,-895.996,154.297,46.875,-862.793,0.000
1746583609.032,543.457,64.941,29.297,499.023,0.000
1746583609.036,-1000.000,-225.586,-105.957,-1000.000,0.000
1746583609.040,-986.816,-197.754,-115.723,-891.113,0.000
1746583609.044,486.816,100.586,15.625,637.207,0.000
1746583609.048,-885.742,173.828,29.297,-944.336,0.000
1746583609.052,-305.176,-123.535,-91.797,-395.020,0.000
1746583609.055,-1000.000,-234.863,-111.328,-1000.000,0.000
1746583609.059,-85.938,31.738,-0.488,-5.859,0.000
1746583609.063,-794.922,210.449,59.570,-788.086,0.000
1746583609.067,189.941,-9.277,-38.086,139.648,0.000
1746583609.071,-1000.000,-252.930,-119.629,-1000.000,0.000
1746583609.075,-260.742,-90.820,-53.711,-254.883,0.000
1746583609.079,-809.570,188.965,42.969,-810.059,0.000
1746583609.083,269.531,41.504,-8.301,245.605,0.000
1746583609.087,-1000.000,-243.652,-130.859,-1000.000,0.000
1746583609.091,-574.707,-139.648,-102.539,-503.906,0.000
1746583609.095,-970.215,164.551,27.832,-925.781,0.000
1746583609.098,701.660,105.957,29.297,642.578,0.000
1746583609.102,-865.723,-187.012,-74.707,-942.871,0.000
1746583609.106,-1000.000,-205.078,-86.426,-992.676,0.000
1746583609.110,326.660,73.242,8.301,484.863,0.000
1746583609.114,-823.730,176.758,42.969,-852.051,0.000
1746583609.118,-146.484,-114.258,-61.035,-206.543,0.000
1746583609.122,-1000.000,-255.371,-127.441,-1000.000,0.000
1746583609.126,-209.961,2.441,-48.828,-137.695,0.000
1746583609.130,-815.430,206.543,38.574,-799.316,0.000
1746583609.134,233.398,-34.180,-25.391,218.750,0.000
1746583609.138,-1000.000,-275.879,-105.957,-1000.000,0.000
1746583609.141,-294.922,-81.055,-41.504,-266.602,0.000
1746583609.145,-818.848,198.730,53.711,-808.105,0.000
1746583609.149,388.672,75.684,1.953,338.867,0.000
1746583609.153,-1000.000,-242.676,-119.629,-1000.000,0.000
1746583609.157,-728.516,-204.102,-94.727,-621.094,0.000
1746583609.161,885.254,139.648,29.297,991.699,0.000
1746583609.165,852.539,145.996,14.648,782.227,0.000
1746583609.169,-680.664,-180.176,-109.375,-760.254,0.000
1746583609.173,-1000.000,-232.422,-117.188,-1000.000,0.000
1746583609.177,135.254,48.828,6.348,235.352,0.000
1746583609.181,-797.852,183.594,56.152,-804.688,0.000
1746583609.184,-25.391,-67.383,-42.480,-72.754,0.000
1746583609.188,-1000.000,-230.957,-107.422,-1000.000,0.000
1746583609.192,-236.816,-15.137,-29.297,-215.820,0.000
1746583609.196,-818.848,185.059,56.152,-812.012,0.000
1746583609.200,241.211,-22.949,-23.926,234.863,0.000
1746583609.204,-1000.000,-267.090,-145.020,-1000.000,0.000
1746583609.208,-416.504,-126.953,-84.961,-332.520,0.000
1746583609.212,-867.676,172.852,44.922,-832.520,0.000
1746583609.216,491.699,83.496,14.648,437.500,0.000
1746583609.220,-1000.000,-187.012,-91.309,-1000.000,0.000
1746583609.223,-876.465,-152.832,-85.449,-773.926,0.000
1746583609.227,675.781,124.023,19.043,810.059,0.000
1746583609.231,-989.746,173.828,48.340,947.266,0.000
1746583609.235,-475.098,-149.902,-65.430,-553.711,0.000
1746583609.239,-1000.000,-264.160,-121.582,-1000.000,0.000
1746583609.243,18.555,37.109,-25.391,95.215,0.000
1746583609.247,-787.598,219.727,32.227,-786.621,0.000
1746583609.251,123.047,-56.152,-41.992,60.059,0.000
1746583609.255,-1000.000,-271.484,-103.027,-1000.000,0.000
1746583609.259,-252.930,-55.664,-24.414,-246.094,0.000
1746583609.263,-812.500,199.707,68.359,-812.988,0.000
1746583609.266,241.211,5.859,-3.418,240.234,0.000
1746583609.270,-1000.000,-263.184,-101.074,-1000.000,0.000
1746583609.274,-516.602,-130.371,-69.336,-436.035,0.000
1746583609.278,-923.340,156.738,30.273,-881.836,0.000
1746583609.282,604.980,113.770,5.371,559.570,0.000
1746583609.286,-979.980,-178.223,-121.094,-1000.000,0.000
1746583609.290,-994.141,-171.875,-97.168,-908.691,0.000
1746583609.294,473.633,126.953,47.852,609.375,0.000
1746583609.298,-854.980,184.570,58.594,-903.809,0.000
1746583609.302,-226.074,-125.977,-65.918,-315.918,0.000
1746583609.306,-1000.000,-260.254,-109.863,-1000.000,0.000
1746583609.309,-138.672,1.953,-11.230,-50.781,0.000
1746583609.313,-802.246,173.828,51.758,-790.527,0.000
1746583609.317,208.008,-75.684,-39.062,166.504,0.000
1746583609.321,-1000.000,-269.043,-120.605,-1000.000,0.000
1746583609.325,-264.160,-56.152,-52.246,-259.277,0.000
1746583609.329,-809.082,212.891,53.223,-809.082,0.000
1746583609.333,307.617,63.965,35.645,277.832,0.000
1746583609.337,-1000.000,-218.750,-85.449,-1000.000,0.000
1746583609.341,-610.840,-151.367,-94.727,-537.109,0.000
1746583609.345,987.305,120.605,26.367,-955.078,0.000
1746583609.348,799.805,119.141,15.137,720.703,0.000
1746583609.352,-749.512,-163.086,-108.887,-854.492,0.000
1746583609.356,-1000.000,-210.449,-124.512,-1000.000,0.000
1746583609.360,273.438,71.777,-7.324,405.762,0.000
1746583609.364,-805.176,187.500,46.387,-825.195,0.000
1746583609.368,-75.195,-109.863,-57.129,-138.184,0.000
1746583609.372,-1000.000,-271.484,-115.723,-1000.000,0.000
1746583609.376,-232.910,-14.648,-23.926,-173.340,0.000
1746583609.380,-818.359,196.777,51.758,-804.199,0.000
1746583609.384,237.793,2.441,-21.973,228.516,0.000
1746583609.388,-1000.000,-229.492,-112.793,-1000.000,0.000
1746583609.391,-346.680,-114.258,-68.359,-292.969,0.000
1746583609.395,-836.914,127.441,33.691,-817.383,0.000
1746583609.399,404.785,28.320,15.625,362.793,0.000
1746583609.403,-1000.000,-237.305,-100.586,-1000.000,0.000
1746583609.407,-793.457,-184.082,-101.562,-702.637,0.000
1746583609.411,794.922,119.629,21.484,900.879,0.000
1746583609.415,914.062,135.742,47.852,851.074,0.000
1746583609.419,-609.863,-159.668,-74.707,-687.500,0.000
1746583609.423,-1000.000,-216.797,-110.352,-1000.000,0.000
1746583609.427,84.473,47.852,-0.488,176.758,0.000
1746583609.431,-789.551,191.895,47.852,-792.480,0.000
1746583609.434,60.059,-82.520,-44.922,4.395,0.000
1746583609.438,-1000.000,-288.574,-113.770,-1000.000,0.000
1746583609.442,-246.094,-34.180,-44.922,-237.793,0.000
1746583609.446,-812.988,222.168,54.199,-811.523,0.000
1746583609.450,239.746,14.648,-10.742,236.816,0.000
1746583609.454,-1000.000,-237.793,-117.188,-1000.000,0.000
1746583609.458,-427.734,-83.008,-64.941,-354.980,0.000
1746583609.462,-876.465,186.035,39.551,-844.238,0.000
1746583609.466,545.898,80.566,13.184,492.188,0.000
1746583609.470,-1000.000,-238.281,-102.539,-1000.000,0.000
1746583609.474,-935.547,-231.934,-91.797,-841.797,0.000
1746583609.477,581.543,104.004,28.809,719.238,0.000
1746583609.481,-919.922,199.707,33.691,-989.746,0.000
1746583609.485,-353.027,-95.703,-86.914,-461.426,0.000
1746583609.489,-1000.000,-231.445,-129.395,-1000.000,0.000
1746583609.493,-67.383,15.625,-8.301,26.855,0.000
1746583609.497,-794.434,170.410,68.359,-787.598,0.000
1746583609.501,174.316,-81.543,-26.855,113.281,0.000
1746583609.505,-1000.000,-254.883,-115.234,-1000.000,0.000
1746583609.509,-257.324,-38.086,-55.176,-251.465,0.000
1746583609.513,-810.547,190.430,26.855,-811.035,0.000
1746583609.516,240.234,7.812,-28.809,240.234,0.000
1746583609.520,-1000.000,-265.625,-105.469,-1000.000,0.000
1746583609.524,-536.621,-126.465,-57.617,-474.609,0.000
1746583609.528,-937.012,191.406,37.598,-901.367,0.000
1746583609.532,628.906,122.070,9.766,584.961,0.000
1746583609.536,-925.293,-202.148,-115.234,-985.352,0.000
1746583609.540,-1000.000,-208.008,-128.906,-989.258,0.000
1746583609.544,310.059,102.051,-0.977,483.398,0.000
1746583609.548,-829.102,184.082,56.641,-866.211,0.000
1746583609.552,-170.410,-120.605,-34.668,-246.582,0.000
1746583609.556,-1000.000,-264.648,-104.980,-1000.000,0.000
1746583609.559,-205.078,-12.207,-37.109,-128.418,0.000
1746583609.563,-815.430,196.289,40.039,-800.781,0.000
1746583609.567,231.445,-32.227,-8.789,204.590,0.000
1746583609.571,-1000.000,-249.512,-91.797,-1000.000,0.000
1746583609.575,-270.996,-63.965,-69.336,-262.207,0.000
1746583609.579,-811.035,177.246,10.254,-808.594,0.000
1746583609.583,313.477,27.344,-22.461,289.551,0.000
1746583609.587,-1000.000,-252.930,-118.164,-1000.000,0.000
1746583609.591,-704.590,-167.969,-102.539,-609.375,0.000
1746583609.595,899.414,152.832,2.930,-999.023,0.000
1746583609.599,833.496,161.621,23.438,747.559,0.000
1746583609.602,-705.566,-144.531,-69.824,-802.246,0.000
1746583609.606,-1000.000,-229.004,-92.773,-1000.000,0.000
1746583609.610,141.113,48.828,16.113,238.281,0.000
1746583609.614,-800.293,184.570,59.082,-808.105,0.000
1746583609.618,-36.621,-82.520,-59.082,-87.402,0.000
1746583609.622,-1000.000,-253.418,-126.953,-1000.000,0.000
1746583609.626,-235.840,-41.992,-45.898,-212.402,0.000
1746583609.630,-817.383,179.688,23.438,-811.523,0.000
1746583609.634,238.770,-20.996,-39.551,233.887,0.000
1746583609.638,-1000.000,-264.160,-112.305,-1000.000,0.000
1746583609.641,-371.094,-98.633,-49.316,-314.453,0.000
1746583609.645,-848.145,184.570,58.594,-825.684,0.000
1746583609.649,462.891,74.707,17.090,415.039,0.000
1746583609.653,-1000.000,-234.375,-94.727,-1000.000,0.000
1746583609.657,-848.633,-182.129,-83.496,-738.770,0.000
1746583609.661,713.867,124.023,20.020,853.516,0.000
1746583609.665,988.281,129.883,32.227,918.945,0.000
1746583609.669,-493.652,-157.227,-93.750,-578.125,0.000
1746583609.673,-1000.000,-247.070,-130.859,-1000.000,0.000
1746583609.677,-9.766,11.230,-7.812,75.684,0.000
1746583609.681,-799.316,183.594,42.969,-795.898,0.000
1746583609.684,74.219,-73.730,-64.941,22.461,0.000
1746583609.688,-1000.000,-266.113,-120.605,-1000.000,0.000
1746583609.692,-245.605,-41.504,-31.250,-241.211,0.000
1746583609.696,-815.430,210.938,51.758,-814.453,0.000
1746583609.700,241.211,19.531,-11.719,239.746,0.000
1746583609.704,-1000.000,-249.512,-117.188,-1000.000,0.000
1746583609.708,-482.422,-130.859,-76.172,-408.203,0.000
1746583609.712,-907.227,188.477,46.387,-871.582,0.000
1746583609.716,607.422,125.000,19.531,567.383,0.000
1746583609.720,-976.562,-214.355,-106.934,-1000.000,0.000
1746583609.724,-982.910,-210.938,-112.793,-875.488,0.000
1746583609.727,505.371,91.797,17.090,666.504,0.000
1746583609.731,-869.629,163.086,62.500,-921.875,0.000
1746583609.735,-268.555,-122.559,-51.758,-345.703,0.000
1746583609.739,-1000.000,-238.281,-104.492,-1000.000,0.000
1746583609.743,-87.402,2.441,-19.043,-7.324,0.000
1746583609.747,-791.992,183.594,26.367,-782.715,0.000
1746583609.751,209.473,-34.180,-51.758,174.316,0.000
1746583609.755,-1000.000,-271.973,-125.000,-1000.000,0.000
1746583609.759,-265.137,-64.941,-57.617,-260.742,0.000
1746583609.763,-808.594,229.004,52.246,-807.617,0.000
1746583609.766,291.992,41.016,-0.977,264.160,0.000
1746583609.770,-1000.000,-270.020,-119.629,-1000.000,0.000
1746583609.774,-606.445,-163.086,-93.750,-520.020,0.000
1746583609.778,-993.652,146.973,21.484,-937.988,0.000
1746583609.782,736.328,114.746,27.344,677.734,0.000
1746583609.786,-819.824,-190.918,-80.566,-889.160,0.000
1746583609.790,-1000.000,-229.980,-113.281,-1000.000,0.000
1746583609.794,266.113,64.453,3.418,399.414,0.000
1746583609.798,-816.895,169.922,51.758,-837.891,0.000
1746583609.802,-135.742,-115.234,-65.918,-187.012,0.000
1746583609.806,-1000.000,-234.863,-123.047,-1000.000,0.000
1746583609.809,-212.891,23.926,-20.020,-146.484,0.000
1746583609.813,-816.895,205.078,61.035,-800.293,0.000
1746583609.817,234.863,-34.180,-33.203,223.633,0.000
1746583609.821,-1000.000,-283.691,-114.258,-1000.000,0.000
1746583609.825,-319.336,-108.398,-51.758,-269.531,0.000
1746583609.829,-827.637,186.523,59.570,-809.082,0.000
1746583609.833,410.156,64.941,22.461,361.816,0.000
1746583609.837,-1000.000,-237.793,-104.980,-1000.000,0.000
1746583609.841,-748.535,-179.199,-87.891,-658.203,0.000
1746583609.845,834.961,148.438,23.438,939.941,0.000
1746583609.849,941.406,169.922,29.785,856.934,0.000
1746583609.852,-563.965,-134.766,-63.965,-675.293,0.000
1746583609.856,-1000.000,-211.426,-102.539,-1000.000,0.000
1746583609.860,130.859,45.410,-7.324,221.680,0.000
1746583609.864,-791.992,167.480,60.059,-800.781,0.000
1746583609.868,-0.977,-102.539,-43.457,-56.641,0.000
1746583609.872,-1000.000,-284.180,-118.164,-1000.000,0.000
1746583609.876,-239.746,-36.133,-25.391,-225.098,0.000
1746583609.880,-817.383,222.656,72.266,-813.477,0.000
1746583609.884,240.723,20.020,-9.277,236.328,0.000
1746583609.888,-1000.000,-265.137,-116.699,-1000.000,0.000
1746583609.892,-423.828,-109.375,-62.012,-342.773,0.000
1746583609.895,-871.094,201.172,45.410,-837.402,0.000
1746583609.899,501.953,95.703,7.812,458.984,0.000
1746583609.903,-1000.000,-229.492,-112.793,-1000.000,0.000
1746583609.907,-905.273,-219.238,-95.703,-818.848,0.000
1746583609.911,639.160,96.191,29.785,755.859,0.000
1746583609.915,-978.516,161.621,47.363,968.262,0.000
1746583609.919,-464.355,-117.188,-71.289,-531.738,0.000
1746583609.923,-1000.000,-195.312,-108.887,-1000.000,0.000
1746583609.927,11.719,53.223,-11.230,80.078,0.000
1746583609.931,-788.574,184.570,42.480,-786.621,0.000
1746583609.934,124.023,-64.453,-30.273,72.266,0.000
1746583609.938,-1000.000,-262.695,-109.863,-1000.000,0.000
1746583609.942,-252.930,-41.016,-63.965,-247.559,0.000
1746583609.946,-813.477,211.914,28.320,-813.477,0.000
1746583609.950,241.699,60.547,-12.695,241.211,0.000
1746583609.954,-1000.000,-208.496,-101.562,-1000.000,0.000
1746583609.958,-536.133,-124.512,-70.801,-470.703,0.000
1746583609.962,-933.594,177.734,45.898,-898.926,0.000
1746583609.966,613.281,120.605,32.715,578.125,0.000
1746583609.970,-961.914,-207.520,-98.633,-1000.000,0.000
1746583609.974,-1000.000,-208.984,-104.004,-955.566,0.000
1746583609.977,396.484,86.914,-1.465,533.203,0.000
1746583609.981,-833.496,147.461,14.648,-874.512,0.000
1746583609.985,-188.965,-117.676,-62.012,-272.461,0.000
1746583609.989,-1000.000,-226.562,-98.633,-1000.000,0.000
1746583609.993,-129.883,23.438,-11.719,-52.246,0.000
1746583609.997,-796.387,204.590,61.035,-786.133,0.000
1746583610.001,220.703,-44.922,-31.738,194.336,0.000
1746583610.005,-1000.000,-261.230,-109.375,-1000.000,0.000
1746583610.009,-266.602,-65.918,-46.875,-263.672,0.000
1746583610.013,-808.105,197.754,33.691,-807.129,0.000
1746583610.017,312.500,26.855,-14.160,286.133,0.000
1746583610.020,-1000.000,-266.602,-105.957,-1000.000,0.000
1746583610.024,-608.398,-142.578,-66.895,-544.434,0.000
1746583610.028,979.980,177.246,40.039,-966.309,0.000
1746583610.032,829.590,161.621,41.992,751.953,0.000
1746583610.036,-685.547,-161.133,-86.426,-792.480,0.000
1746583610.040,-1000.000,-239.258,-132.812,-1000.000,0.000
1746583610.044,177.246,59.570,-22.461,309.082,0.000
1746583610.048,-804.688,172.363,28.320,-818.359,0.000
1746583610.052,-75.684,-113.770,-53.711,-133.789,0.000
1746583610.056,-1000.000,-253.418,-98.145,-1000.000,0.000
1746583610.059,-232.422,-4.395,0.000,-196.777,0.000
1746583610.063,-818.848,216.797,73.730,-810.547,0.000
1746583610.067,238.770,16.113,-13.672,231.934,0.000
1746583610.071,-1000.000,-235.840,-94.238,-1000.000,0.000
1746583610.075,-354.980,-103.516,-55.664,-305.176,0.000
1746583610.079,-842.285,178.711,20.508,-822.266,0.000
1746583610.083,462.402,76.172,-4.395,414.062,0.000
1746583610.087,-1000.000,-225.098,-109.375,-1000.000,0.000
1746583610.091,-815.430,-200.684,-100.098,-713.867,0.000
1746583610.095,764.648,103.027,24.414,887.695,0.000
1746583610.099,962.891,155.762,31.250,889.160,0.000
1746583610.102,-535.156,-137.207,-90.332,-630.371,0.000
1746583610.106,-1000.000,-233.887,-118.652,-1000.000,0.000
1746583610.110,55.176,45.410,-1.465,151.367,0.000
1746583610.114,-789.062,214.844,57.617,-788.574,0.000
1746583610.118,75.684,-57.129,-51.758,24.414,0.000
1746583610.122,-1000.000,-267.578,-137.207,-1000.000,0.000
1746583610.126,-247.559,-37.109,-52.734,-243.164,0.000
1746583610.130,-813.965,211.426,47.363,-812.988,0.000
1746583610.134,240.723,29.297,-17.090,239.258,0.000
1746583610.138,-1000.000,-223.633,-107.910,-1000.000,0.000
1746583610.142,-462.891,-121.094,-53.223,-396.484,0.000
1746583610.145,-891.602,151.367,36.133,-860.840,0.000
1746583610.149,553.223,86.914,-8.789,502.930,0.000
1746583610.153,-1000.000,-201.660,-110.352,-1000.000,0.000
1746583610.157,-973.145,-203.125,-90.332,-866.211,0.000
1746583610.161,510.254,67.871,20.508,670.898,0.000
1746583610.165,-884.766,148.438,39.062,-945.312,0.000
1746583610.169,-300.293,-121.094,-77.637,-392.090,0.000
1746583610.173,-1000.000,-217.773,-119.629,-1000.000,0.000
1746583610.177,-74.707,40.527,-9.277,10.254,0.000
1746583610.181,-791.992,195.801,47.852,-783.691,0.000
1746583610.185,195.312,-43.945,-51.758,148.438,0.000
1746583610.188,-1000.000,-248.535,-129.395,-1000.000,0.000
1746583610.192,-261.230,-61.035,-55.176,-255.859,0.000
1746583610.196,-810.547,193.359,39.062,-810.547,0.000
1746583610.200,255.371,28.320,-18.555,240.723,0.000
1746583610.204,-1000.000,-237.305,-118.652,-1000.000,0.000
1746583610.208,-608.398,-141.113,-74.707,-526.367,0.000
1746583610.212,-987.305,148.926,18.066,-932.129,0.000
1746583610.216,681.641,107.422,-1.953,623.535,0.000
1746583610.220,-908.203,-194.824,-98.633,-970.703,0.000
1746583610.224,-1000.000,-197.266,-95.215,-978.516,0.000
1746583610.227,368.164,111.816,9.766,492.676,0.000
1746583610.231,-824.707,224.609,41.992,-848.145,0.000
1746583610.235,-140.137,-75.195,-55.176,-194.824,0.000
1746583610.239,-1000.000,-263.184,-109.375,-1000.000,0.000
1746583610.243,-205.078,-16.113,-34.668,-128.906,0.000
1746583610.247,-813.477,206.055,30.762,-796.875,0.000
1746583610.251,231.934,-21.973,-33.691,212.891,0.000
1746583610.255,-1000.000,-267.090,-111.816,-1000.000,0.000
1746583610.259,-286.621,-105.469,-46.875,-265.625,0.000
1746583610.263,-815.918,183.105,45.898,-807.617,0.000
1746583610.267,379.883,63.477,-6.348,327.637,0.000
1746583610.270,-1000.000,-231.934,-109.375,-1000.000,0.000
1746583610.274,-685.547,-175.293,-81.543,-601.074,0.000
1746583610.278,923.828,125.488,28.320,999.023,0.000
1746583610.282,854.004,142.578,20.996,789.062,0.000
1746583610.286,-667.480,-163.574,-89.355,-748.047,0.000
1746583610.290,-1000.000,-230.957,-97.656,-1000.000,0.000
1746583610.294,142.090,41.504,16.602,243.652,0.000
1746583610.298,-798.340,190.918,51.758,-805.176,0.000
1746583610.302,-31.250,-65.430,-63.477,-77.148,0.000
1746583610.306,-1000.000,-253.906,-129.883,-1000.000,0.000
1746583610.310,-236.328,-36.621,-37.109,-216.309,0.000
1746583610.313,-816.406,187.012,49.805,-811.523,0.000
1746583610.317,238.281,-0.977,-12.695,233.887,0.000
1746583610.321,-1000.000,-247.559,-104.004,-1000.000,0.000
1746583610.325,-363.770,-97.168,-62.500,-314.941,0.000
1746583610.329,-845.703,182.617,32.715,-826.660,0.000
1746583610.333,479.980,64.941,-8.301,431.641,0.000
1746583610.337,-1000.000,-244.141,-116.211,-1000.000,0.000
1746583610.341,-872.070,-205.566,-96.191,-769.043,0.000
1746583610.345,678.711,119.629,24.902,810.547,0.000
1746583610.349,-981.934,155.762,38.086,957.520,0.000
1746583610.353,-459.961,-145.020,-79.102,-534.668,0.000
1746583610.356,-1000.000,-238.281,-119.629,-1000.000,0.000
1746583610.360,12.695,33.203,-19.531,83.984,0.000
1746583610.364,-788.574,171.387,36.621,-788.574,0.000
1746583610.368,117.676,-61.035,-62.012,56.152,0.000
1746583610.372,-1000.000,-216.309,-106.934,-1000.000,0.000
1746583610.376,-252.441,-37.109,-29.297,-245.605,0.000
1746583610.380,-812.988,184.570,36.133,-812.988,0.000
1746583610.384,241.211,14.648,-7.324,240.234,0.000
1746583610.388,-1000.000,-236.816,-103.027,-1000.000,0.000
1746583610.392,-511.719,-111.328,-67.383,-429.688,0.000
1746583610.395,-920.898,198.242,44.434,-878.906,0.000
1746583610.399,604.980,133.789,17.578,562.012,0.000
1746583610.403,-975.098,-206.055,-99.609,-1000.000,0.000
1746583610.407,-1000.000,-213.867,-102.051,-921.875,0.000
1746583610.411,456.055,96.191,14.160,586.426,0.000
1746583610.415,-850.586,194.824,41.504,-890.625,0.000
1746583610.419,-210.449,-80.566,-56.641,-293.457,0.000
1746583610.423,-1000.000,-235.840,-93.262,-1000.000,0.000
1746583610.427,-161.621,-10.742,-19.531,-65.430,0.000
1746583610.431,-806.152,179.199,35.645,-790.527,0.000
1746583610.435,219.238,-32.715,-42.480,183.594,0.000
1746583610.438,-1000.000,-243.164,-117.188,-1000.000,0.000
1746583610.442,-265.625,-85.449,-44.922,-261.719,0.000
1746583610.446,-808.105,180.664,47.852,-807.129,0.000
1746583610.450,319.824,65.918,-17.578,289.551,0.000
1746583610.454,-1000.000,-243.652,-120.117,-1000.000,0.000
1746583610.458,-598.633,-157.715,-70.801,-523.926,0.000
1746583610.462,-997.559,181.641,36.621,-942.383,0.000
1746583610.466,781.738,146.973,32.227,706.055,0.000
1746583610.470,-749.023,-184.082,-80.566,-846.680,0.000
1746583610.474,-1000.000,-238.770,-104.980,-1000.000,0.000
1746583610.478,211.914,56.641,5.859,341.309,0.000
1746583610.481,-808.594,164.551,48.828,-824.219,0.000
1746583610.485,-96.191,-121.094,-40.039,-153.320,0.000
1746583610.489,-1000.000,-259.766,-100.098,-1000.000,0.000
1746583610.493,-230.957,-2.930,-39.062,-179.688,0.000
1746583610.497,-816.406,208.008,24.902,-806.152,0.000
1746583610.501,234.375,-8.789,-42.969,228.027,0.000
1746583610.505,-1000.000,-255.859,-108.398,-1000.000,0.000
1746583610.509,-283.203,-74.219,-32.715,-267.578,0.000
1746583610.513,-814.941,201.172,65.918,-808.594,0.000
1746583610.517,399.414,62.988,19.531,363.770,0.000
1746583610.520,-1000.000,-250.488,-99.609,-1000.000,0.000
1746583610.524,-794.434,-202.637,-87.402,-701.172,0.000
1746583610.528,790.039,136.230,21.484,901.367,0.000
1746583610.532,930.664,152.832,20.020,858.398,0.000
1746583610.536,-583.496,-168.457,-98.145,-675.293,0.000
1746583610.540,-1000.000,-236.816,-130.859,-1000.000,0.000
1746583610.544,76.172,23.438,-20.508,169.434,0.000
1746583610.548,-791.016,166.504,42.969,-793.945,0.000
1746583610.552,50.293,-73.242,-36.621,-8.789,0.000
1746583610.556,-1000.000,-232.422,-98.145,-1000.000,0.000
1746583610.560,-245.117,-12.695,-22.949,-235.840,0.000
1746583610.563,-815.918,190.918,44.922,-814.453,0.000
1746583610.567,241.699,-3.418,-29.785,239.258,0.000
1746583610.571,-1000.000,-248.047,-117.676,-1000.000,0.000
1746583610.575,-473.145,-119.141,-78.613,-400.391,0.000
1746583610.579,-894.531,162.598,35.156,-862.305,0.000
1746583610.583,520.508,71.289,8.789,478.516,0.000
1746583610.587,-1000.000,-229.492,-108.887,-1000.000,0.000
1746583610.591,-909.668,-200.684,-96.191,-810.547,0.000
1746583610.595,625.977,110.840,25.879,777.344,0.000
1746583610.599,-955.566,187.500,22.461,982.910,0.000
1746583610.603,-407.715,-129.883,-110.352,-496.582,0.000
1746583610.606,-1000.000,-255.859,-125.000,-1000.000,0.000
1746583610.610,-76.172,18.066,-13.672,13.184,0.000
1746583610.614,-798.340,194.336,48.340,-790.039,0.000
1746583610.618,177.246,-57.129,-22.949,120.117,0.000
1746583610.622,-1000.000,-262.695,-90.332,-1000.000,0.000
1746583610.626,-257.324,-53.223,-36.133,-252.441,0.000
1746583610.630,-810.547,210.449,30.762,-811.035,0.000
1746583610.634,240.723,33.203,-25.391,240.723,0.000
1746583610.638,-1000.000,-250.977,-119.141,-1000.000,0.000
1746583610.642,-555.664,-138.184,-72.266,-494.141,0.000
1746583610.645,-953.613,150.391,31.738,-912.109,0.000
1746583610.649,657.227,125.488,4.883,595.703,0.000
1746583610.653,-931.152,-181.152,-90.332,-994.629,0.000
1746583610.657,-1000.000,-212.402,-84.473,-956.055,0.000
1746583610.661,417.480,90.820,17.090,529.297,0.000
1746583610.665,-833.008,180.664,59.082,-866.211,0.000
1746583610.669,-161.621,-124.023,-35.156,-236.328,0.000
1746583610.673,-1000.000,-291.504,-104.980,-1000.000,0.000
1746583610.677,-190.918,-38.086,-19.043,-104.980,0.000
1746583610.681,-810.059,198.242,56.641,-794.434,0.000
1746583610.685,229.004,-41.504,-25.391,202.637,0.000
1746583610.688,-1000.000,-266.602,-104.004,-1000.000,0.000
1746583610.692,-267.090,-79.590,-40.039,-264.160,0.000
1746583610.696,-809.082,176.270,52.734,-808.594,0.000
1746583610.700,346.191,51.270,-7.812,305.176,0.000
1746583610.704,-1000.000,-253.906,-105.957,-1000.000,0.000
1746583610.708,-723.633,-204.590,-73.730,-614.258,0.000
1746583610.712,893.555,119.141,43.457,-999.023,0.000
1746583610.716,818.359,123.047,63.965,746.094,0.000
1746583610.720,-728.516,-193.848,-56.641,-812.988,0.000
1746583610.724,-1000.000,-241.211,-104.980,-1000.000,0.000
1746583610.728,152.832,67.871,-10.254,270.020,0.000
1746583610.731,-799.805,198.242,44.434,-808.105,0.000
1746583610.735,-39.062,-86.914,-37.598,-89.844,0.000
1746583610.739,-1000.000,-241.211,-90.820,-1000.000,0.000
1746583610.743,-235.840,18.555,-1.953,-202.637,0.000
1746583610.747,-818.848,224.609,72.754,-809.082,0.000
1746583610.751,240.234,-13.184,-18.555,232.910,0.000
1746583610.755,-1000.000,-283.203,-117.188,-1000.000,0.000
1746583610.759,-399.414,-130.371,-64.453,-321.289,0.000
1746583610.763,-858.398,182.617,51.270,-827.148,0.000
1746583610.767,446.289,88.867,24.902,397.949,0.000
1746583610.771,-1000.000,-214.355,-86.426,-1000.000,0.000
1746583610.774,-832.520,-171.387,-91.797,-722.168,0.000
1746583610.778,719.238,113.281,28.809,854.492,0.000
1746583610.782,-993.652,154.297,66.406,943.359,0.000
1746583610.786,-479.980,-126.465,-63.477,-559.570,0.000
1746583610.790,-1000.000,-199.707,-107.422,-1000.000,0.000
1746583610.794,52.246,81.543,3.418,150.391,0.000
1746583610.798,-782.715,227.539,58.105,-781.250,0.000
1746583610.802,128.418,-49.805,-47.852,62.500,0.000
1746583610.806,-1000.000,-279.297,-116.699,-1000.000,0.000
1746583610.810,-254.883,-75.195,-33.691,-247.559,0.000
1746583610.813,-811.035,172.363,41.504,-811.523,0.000
1746583610.817,240.723,1.953,-22.949,239.258,0.000
1746583610.821,-1000.000,-248.535,-106.934,-1000.000,0.000
1746583610.825,-498.047,-118.652,-63.477,-417.480,0.000
1746583610.829,-913.086,190.430,37.598,-872.559,0.000
1746583610.833,596.191,136.230,19.531,546.387,0.000
1746583610.837,-977.051,-169.434,-92.285,-1000.000,0.000
1746583610.841,-1000.000,-196.289,-97.656,-915.039,0.000
1746583610.845,471.680,80.078,18.066,613.281,0.000
1746583610.849,-879.883,156.738,58.594,-931.641,0.000
1746583610.853,-289.062,-145.508,-64.941,-371.582,0.000
1746583610.856,-1000.000,-266.113,-132.324,-1000.000,0.000
1746583610.860,-117.676,0.488,-31.250,-33.203,0.000
1746583610.864,-799.805,197.754,38.086,-788.086,0.000
1746583610.868,213.379,-35.645,-50.781,178.223,0.000
1746583610.872,-1000.000,-252.441,-109.863,-1000.000,0.000
1746583610.876,-265.137,-57.129,-19.531,-260.742,0.000
1746583610.880,-807.617,194.824,49.805,-807.129,0.000
1746583610.884,303.223,50.293,-19.043,273.438,0.000
1746583610.888,-1000.000,-230.957,-96.191,-1000.000,0.000
1746583610.892,-583.984,-141.602,-56.641,-511.719,0.000
1746583610.896,-968.262,150.391,49.316,-924.805,0.000
1746583610.899,696.289,88.379,44.434,642.090,0.000
1746583610.903,-855.957,-242.188,-73.242,-922.852,0.000
1746583610.907,-1000.000,-268.066,-83.008,-1000.000,0.000
1746583610.911,269.531,33.691,28.809,404.785,0.000
1746583610.915,-818.848,138.672,73.730,-839.844,0.000
1746583610.919,-141.113,-158.203,-18.066,-190.430,0.000
1746583610.923,-1000.000,-321.777,-58.105,-1000.000,0.000
1746583610.927,-209.473,-83.984,30.273,-144.531,0.000
1746583610.931,-815.430,142.090,113.281,-799.805,0.000
1746583610.935,233.398,-85.449,51.270,223.145,0.000
1746583610.938,-1000.000,-366.211,-55.664,-1000.000,0.000
1746583610.942,-303.711,-180.176,-9.277,-267.578,0.000
1746583610.946,-822.266,106.445,90.332,-808.105,0.000
1746583610.950,398.438,-27.832,48.828,353.027,0.000
1746583610.954,-1000.000,-321.777,-58.105,-1000.000,0.000
1746583610.958,-737.305,-233.887,-44.922,-637.207,0.000
1746583610.962,861.328,98.633,59.570,963.867,0.000
1746583610.966,898.438,114.258,73.730,833.496,0.000
1746583610.970,-621.094,-177.246,-39.062,-693.848,0.000
1746583610.974,-1000.000,-261.230,-78.125,-1000.000,0.000
1746583610.978,114.258,41.016,23.438,195.312,0.000
1746583610.981,-787.598,200.684,68.359,-793.457,0.000
1746583610.985,49.316,-94.238,-30.762,-10.254,0.000
1746583610.989,-1000.000,-292.480,-88.867,-1000.000,0.000
1746583610.993,-245.605,-51.758,-2.441,-226.562,0.000
1746583610.997,-814.453,180.176,83.496,-810.547,0.000
1746583611.001,240.234,-20.020,16.602,235.840,0.000
1746583611.005,-1000.000,-277.344,-90.820,-1000.000,0.000
1746583611.009,-441.406,-153.320,-64.941,-361.816,0.000
1746583611.013,-879.395,120.605,40.527,-845.703,0.000
1746583611.017,512.695,64.453,23.438,468.750,0.000
1746583611.021,-1000.000,-221.680,-83.984,-1000.000,0.000
1746583611.024,-869.629,-189.941,-90.820,-770.996,0.000
1746583611.028,676.270,128.418,16.113,808.594,0.000
1746583611.032,-964.355,145.020,37.109,972.168,0.000
1746583611.036,-424.805,-146.973,-73.242,-507.812,0.000
1746583611.040,-1000.000,-232.422,-95.215,-1000.000,0.000
1746583611.044,-8.789,28.809,17.578,64.453,0.000
1746583611.048,-788.086,187.988,66.406,-786.133,0.000
1746583611.052,149.902,-71.289,-47.852,90.332,0.000
1746583611.056,-1000.000,-290.039,-117.676,-1000.000,0.000
1746583611.060,-256.348,-78.613,-30.762,-249.512,0.000
1746583611.064,-812.012,200.195,57.129,-812.500,0.000
1746583611.067,244.629,54.199,-9.277,241.211,0.000
1746583611.071,-1000.000,-222.656,-103.516,-1000.000,0.000
1746583611.075,-552.734,-135.254,-66.406,-487.305,0.000
1746583611.079,-939.941,150.391,29.785,-905.762,0.000
1746583611.083,603.516,76.660,15.137,568.359,0.000
1746583611.087,-963.379,-208.008,-81.543,-1000.000,0.000
1746583611.091,-1000.000,-212.402,-69.824,-966.309,0.000
1746583611.095,371.582,63.965,38.086,522.461,0.000
1746583611.099,-844.727,152.344,42.480,-888.672,0.000
1746583611.103,-213.379,-109.375,-76.172,-300.781,0.000
1746583611.106,-1000.000,-229.004,-106.445,-1000.000,0.000
1746583611.110,-170.410,16.113,-10.742,-76.660,0.000
1746583611.114,-808.105,196.777,32.227,-791.504,0.000
1746583611.118,227.051,-12.695,-35.156,199.707,0.000
1746583611.122,-1000.000,-230.469,-101.074,-1000.000,0.000
1746583611.126,-266.602,-67.383,-50.293,-264.160,0.000
1746583611.130,-808.594,193.359,47.852,-807.617,0.000
1746583611.134,327.637,41.992,-0.977,295.898,0.000
1746583611.138,-1000.000,-258.301,-109.863,-1000.000,0.000
1746583611.142,-638.672,-165.039,-69.824,-579.590,0.000
1746583611.146,979.980,156.738,41.016,-973.145,0.000
1746583611.149,783.691,144.531,36.133,715.820,0.000
1746583611.153,-751.953,-171.875,-67.383,-845.215,0.000
1746583611.157,-1000.000,-232.422,-95.703,-1000.000,0.000
1746583611.161,171.875,56.152,8.789,303.223,0.000
1746583611.165,-798.828,182.617,50.293,-810.547,0.000
1746583611.169,-39.062,-75.195,-43.945,-95.703,0.000
1746583611.173,-1000.000,-251.953,-97.168,-1000.000,0.000
1746583611.177,-235.840,-57.617,4.883,-201.660,0.000
1746583611.181,-815.430,146.973,102.051,-807.617,0.000
1746583611.185,236.816,-45.898,15.625,230.957,0.000
1746583611.189,-1000.000,-290.527,-83.496,-1000.000,0.000
1746583611.192,-335.938,-136.719,-32.715,-288.086,0.000
1746583611.196,-832.520,144.531,55.176,-815.918,0.000
1746583611.200,412.109,18.066,26.855,377.441,0.000
1746583611.204,-1000.000,-282.715,-73.730,-1000.000,0.000
1746583611.208,-846.191,-234.375,-72.266,-730.957,0.000
1746583611.212,729.492,81.543,36.133,875.977,0.000
1746583611.216,932.129,109.375,53.711,859.375,0.000
1746583611.220,-588.379,-187.500,-46.875,-671.875,0.000
1746583611.224,-1000.000,-257.812,-88.379,-1000.000,0.000
1746583611.228,33.691,20.508,6.836,120.117,0.000
1746583611.231,-793.457,190.430,72.266,-791.504,0.000
1746583611.235,78.613,-60.547,-20.508,26.367,0.000
1746583611.239,-1000.000,-275.391,-89.844,-1000.000,0.000
1746583611.243,-247.559,-63.965,-21.484,-241.699,0.000
1746583611.247,-813.477,189.453,47.852,-812.012,0.000
1746583611.251,239.746,1.953,-16.602,237.793,0.000
1746583611.255,-1000.000,-267.090,-95.703,-1000.000,0.000
1746583611.259,-440.918,-122.070,-48.828,-373.535,0.000
1746583611.263,-882.812,186.035,60.547,-853.027,0.000
1746583611.267,562.988,86.426,49.316,514.648,0.000
1746583611.271,-992.188,-231.934,-65.918,-1000.000,0.000
1746583611.274,-989.258,-224.121,-88.379,-885.254,0.000
1746583611.278,499.512,85.449,17.090,660.156,0.000
1746583611.282,-896.484,161.621,48.828,-960.449,0.000
1746583611.286,-322.266,-132.812,-77.148,-417.969,0.000
1746583611.290,-1000.000,-238.770,-122.559,-1000.000,0.000
1746583611.294,-84.961,11.719,-19.043,-3.418,0.000
1746583611.298,-796.387,179.199,44.922,-790.527,0.000
1746583611.302,177.734,-49.805,-23.926,120.117,0.000
1746583611.306,-1000.000,-248.047,-101.074,-1000.000,0.000
1746583611.310,-257.324,-57.129,-53.223,-251.465,0.000
1746583611.314,-812.012,193.848,42.969,-812.012,0.000
1746583611.317,240.723,33.691,-13.184,241.699,0.000
1746583611.321,-1000.000,-253.418,-126.465,-1000.000,0.000
1746583611.325,-587.402,-139.160,-73.242,-514.648,0.000
1746583611.329,-978.516,182.617,51.758,-926.758,0.000
1746583611.333,689.453,122.559,38.086,625.000,0.000
1746583611.337,-878.418,-212.402,-78.125,-957.031,0.000
1746583611.341,-1000.000,-235.840,-100.586,-1000.000,0.000
1746583611.345,303.223,55.664,11.719,463.379,0.000
1746583611.349,-821.777,153.809,56.152,-851.562,0.000
1746583611.353,-148.438,-112.793,-51.758,-214.355,0.000
1746583611.357,-1000.000,-237.305,-108.887,-1000.000,0.000
1746583611.360,-195.801,12.695,-18.555,-117.676,0.000
1746583611.364,-810.547,210.449,57.617,-795.410,0.000
1746583611.368,229.492,-22.461,-28.809,215.332,0.000
1746583611.372,-1000.000,-267.090,-131.836,-1000.000,0.000
1746583611.376,-268.066,-95.703,-62.988,-266.113,0.000
1746583611.380,-809.570,185.547,46.875,-807.617,0.000
1746583611.384,361.816,45.898,-7.812,320.801,0.000
1746583611.388,-1000.000,-261.719,-114.258,-1000.000,0.000
1746583611.392,-717.773,-186.523,-77.637,-612.793,0.000
1746583611.396,889.648,137.207,30.273,992.188,0.000
1746583611.399,856.445,148.438,20.996,787.109,0.000
1746583611.403,-673.828,-174.316,-83.984,-751.953,0.000
1746583611.407,-1000.000,-239.258,-88.379,-1000.000,0.000
1746583611.411,134.766,36.621,12.695,232.422,0.000
1746583611.415,-799.316,135.742,41.992,-805.664,0.000
1746583611.419,-30.762,-121.582,-50.781,-77.637,0.000
1746583611.423,-1000.000,-262.207,-105.957,-1000.000,0.000
1746583611.427,-236.328,-18.555,-22.949,-215.332,0.000
1746583611.431,-817.383,207.031,50.781,-811.523,0.000
1746583611.435,239.258,-3.418,-36.133,234.375,0.000
1746583611.439,-1000.000,-252.930,-125.000,-1000.000,0.000
1746583611.442,-381.836,-101.562,-39.551,-320.312,0.000
1746583611.446,-854.492,181.152,70.801,-830.078,0.000
1746583611.450,502.930,91.309,27.344,459.961,0.000
1746583611.454,-1000.000,-209.473,-86.914,-1000.000,0.000
1746583611.458,-884.766,-219.238,-95.703,-778.809,0.000
1746583611.462,671.387,74.707,7.812,808.594,0.000
1746583611.466,-985.840,151.367,29.297,954.590,0.000
1746583611.470,-475.098,-138.184,-84.473,-548.828,0.000
1746583611.474,-1000.000,-209.961,-121.582,-1000.000,0.000
1746583611.478,39.062,80.078,3.418,119.629,0.000
1746583611.482,-782.715,212.891,70.801,-781.250,0.000
1746583611.485,142.090,-63.477,-40.527,77.148,0.000
1746583611.489,-1000.000,-269.531,-122.070,-1000.000,0.000
1746583611.493,-256.348,-46.387,-40.039,-249.023,0.000
1746583611.497,-811.523,179.688,43.457,-812.012,0.000
1746583611.501,240.723,-19.531,-35.156,240.723,0.000
1746583611.505,-1000.000,-258.789,-119.629,-1000.000,0.000
1746583611.509,-531.738,-122.559,-66.406,-456.055,0.000
1746583611.513,-930.664,175.781,15.137,-891.113,0.000
1746583611.517,607.910,121.582,-0.488,565.918,0.000
1746583611.521,-971.191,-182.129,-83.008,-1000.000,0.000
1746583611.524,-1000.000,-200.684,-89.355,-941.406,0.000
1746583611.528,441.895,84.961,11.230,565.430,0.000
1746583611.532,-858.887,176.758,33.691,-899.902,0.000
1746583611.536,-263.672,-132.812,-76.172,-332.520,0.000
1746583611.540,-1000.000,-248.535,-147.461,-1000.000,0.000
1746583611.544,-75.195,55.664,-75.684,1.465,0.000
1746583611.548,-789.062,237.305,-3.906,-780.273,0.000
1746583611.552,214.355,0.000,-85.449,178.223,0.000
1746583611.556,-1000.000,-226.074,-160.645,-1000.000,0.000
1746583611.560,-266.113,-43.457,-83.008,-261.230,0.000
1746583611.564,-809.082,214.355,24.414,-809.082,0.000
1746583611.567,284.180,31.738,-31.250,262.207,0.000
1746583611.571,-1000.000,-242.188,-159.668,-1000.000,0.000
1746583611.575,-633.301,-142.090,-125.977,-568.359,0.000
1746583611.579,987.305,169.434,-6.836,-967.285,0.000
1746583611.583,745.117,155.762,-22.949,693.359,0.000
1746583611.587,-806.152,-149.902,-131.836,-872.559,0.000
1746583611.591,-1000.000,-190.918,-137.207,-1000.000,0.000
1746583611.595,206.055,98.633,-46.387,337.402,0.000
1746583611.599,-808.105,218.262,-6.836,-823.242,0.000
1746583611.603,-95.703,-81.543,-92.773,-159.180,0.000
1746583611.607,-1000.000,-244.629,-136.719,-1000.000,0.000
1746583611.610,-212.402,10.742,-31.250,-145.020,0.000
1746583611.614,-812.500,218.750,54.688,-797.852,0.000
1746583611.618,232.422,0.977,-37.598,223.145,0.000
1746583611.622,-1000.000,-243.652,-140.625,-1000.000,0.000
1746583611.626,-301.758,-70.801,-74.219,-268.555,0.000
1746583611.630,-821.777,206.055,16.113,-808.594,0.000
1746583611.634,402.344,58.105,-35.156,360.352,0.000
1746583611.638,-1000.000,-240.234,-134.766,-1000.000,0.000
1746583611.642,-768.066,-179.199,-110.840,-680.176,0.000
1746583611.646,833.984,142.578,3.418,927.246,0.000
1746583611.649,892.578,159.180,18.555,836.426,0.000
1746583611.653,-627.930,-153.320,-87.402,-696.777,0.000
1746583611.657,-1000.000,-221.191,-97.656,-1000.000,0.000
1746583611.661,69.336,51.270,14.648,173.340,0.000
1746583611.665,-793.945,202.637,33.203,-795.898,0.000
1746583611.669,44.922,-61.035,-83.008,-15.137,0.000
1746583611.673,-1000.000,-247.559,-146.484,-1000.000,0.000
1746583611.677,-244.141,-33.203,-62.988,-238.281,0.000
1746583611.681,-814.941,212.891,36.133,-814.453,0.000
1746583611.685,240.723,26.367,-6.836,238.770,0.000
1746583611.689,-1000.000,-258.789,-98.145,-1000.000,0.000
1746583611.692,-441.895,-126.465,-72.266,-370.605,0.000
1746583611.696,-878.906,176.270,13.184,-849.121,0.000
1746583611.700,517.578,91.797,0.977,479.980,0.000
1746583611.704,-1000.000,-210.938,-103.027,-1000.000,0.000
1746583611.708,-955.078,-189.941,-113.281,-851.562,0.000
1746583611.712,558.594,126.953,11.719,712.402,0.000
1746583611.716,-945.801,175.293,34.668,991.699,0.000
1746583611.720,-415.039,-146.973,-79.102,-501.953,0.000
1746583611.724,-1000.000,-231.445,-109.375,-1000.000,0.000
1746583611.728,-29.297,57.129,-0.488,51.270,0.000
1746583611.732,-789.062,222.656,57.129,-784.180,0.000
1746583611.735,177.734,-49.316,-53.711,124.023,0.000
1746583611.739,-1000.000,-272.949,-131.836,-1000.000,0.000
1746583611.743,-259.277,-50.293,-48.828,-253.906,0.000
1746583611.747,-810.059,205.566,46.387,-810.059,0.000
1746583611.751,240.234,35.645,-18.066,240.234,0.000
1746583611.755,-1000.000,-226.562,-96.191,-1000.000,0.000
1746583611.759,-542.480,-126.953,-40.527,-481.445,0.000
1746583611.763,-944.824,132.812,35.645,-905.762,0.000
1746583611.767,651.367,81.055,5.371,594.238,0.000
1746583611.771,-932.617,-206.543,-106.445,-993.164,0.000
1746583611.775,-1000.000,-207.031,-105.957,-955.566,0.000
1746583611.778,418.945,100.586,3.418,538.086,0.000
1746583611.782,-838.379,185.059,24.902,-876.953,0.000
1746583611.786,-183.105,-121.094,-63.477,-262.207,0.000
1746583611.790,-1000.000,-256.348,-93.750,-1000.000,0.000
1746583611.794,-189.453,-0.488,-1.465,-104.004,0.000
1746583611.798,-811.523,199.707,64.453,-795.410,0.000
1746583611.802,229.492,-23.438,-37.109,206.055,0.000
1746583611.806,-1000.000,-267.578,-127.930,-1000.000,0.000
1746583611.810,-272.949,-102.051,-68.848,-264.160,0.000
1746583611.814,-811.035,175.781,19.043,-807.129,0.000
1746583611.817,342.773,39.551,-24.902,302.734,0.000
1746583611.821,-1000.000,-229.492,-116.211,-1000.000,0.000
1746583611.825,-645.508,-136.719,-75.195,-583.984,0.000
1746583611.829,960.449,163.574,36.133,-987.793,0.000
1746583611.833,834.473,145.020,45.410,763.672,0.000
1746583611.837,-699.707,-169.434,-65.918,-797.852,0.000
1746583611.841,-1000.000,-225.098,-106.934,-1000.000,0.000
1746583611.845,207.520,62.012,-7.812,326.660,0.000
1746583611.849,-796.875,188.965,28.320,-811.035,0.000
1746583611.853,-40.527,-94.238,-70.801,-89.844,0.000
1746583611.857,-1000.000,-268.555,-127.930,-1000.000,0.000
1746583611.860,-217.285,-11.719,-29.785,-187.988,0.000
1746583611.864,-875.000,210.449,59.570,-866.699,0.000
1746583611.868,151.855,-7.324,-34.180,145.020,0.000
1746583611.872,-1000.000,-237.793,-128.418,-1000.000,0.000
1746583611.876,-396.973,-102.539,-77.148,-320.312,0.000
1746583611.880,-860.352,177.246,25.879,-829.590,0.000
1746583611.884,466.309,90.820,-15.625,416.504,0.000
1746583611.888,-1000.000,-190.430,-152.344,-1000.000,0.000
1746583611.892,-855.469,-143.555,-141.113,-738.770,0.000
1746583611.896,711.914,162.109,-21.484,860.352,0.000
1746583611.900,973.633,202.637,-26.855,900.879,0.000
1746583611.903,-527.344,-90.332,-141.602,-613.281,0.000
1746583611.907,-1000.000,-168.457,-149.902,-1000.000,0.000
1746583611.911,30.762,121.094,-46.875,109.863,0.000
1746583611.915,-791.504,291.016,-17.578,-789.551,0.000
1746583611.919,84.961,16.113,-121.094,38.574,0.000
